 Legend
 2020-11-07 17-42-01 "2L7.8/7.8" ||| Режим: #1 : "4600            "; ^^^4600экспресс оценка^^^
 Файл : 4600об.мин.ind
 

  ИНДИКАТОРНАЯ ДИАГРАММА:                                               
 Comment
 Fi          Угол поворота коленчатого вала, [град.]                     
 Pc          Давление в цилиндре, [бар]                                  
 Tc          Температура в цилиндре, [К]                                 
 T_сз        Температура в зоне свежего заряда, [K]                      
 T_ог        Температура в зоне отработавших газов, [K]                  
 V           Объем цилиндра, [куб. м]                                    
 Alf_w       Коэффициент теплоотдачи в цилиндре (Woschni), [Вт/(м2 К)]   
 P_1ring     Давление за первым поршневым кольцом, [бар]                 
 G_bb        Расход газа перетек. через первое поршневое кольцо, [кг/с]  
 P_pist      Позиция поршня относительно НМТ, [мм]                       
 x           Доля выделившегося тепла                                    
Names
Fi        Pc        Tc        T_сз      T_ог      V         Alf_w     P_1ring   G_bb      P_pist    x
Arrays
 180.0      1.08   415.42      0.20000E+26  0.20000E+26    0.455537E-03   454.5   1.0110      0.19751E-04      0.000  0.20000E+26
 181.0      1.08   415.59      0.20000E+26  0.20000E+26    0.455518E-03   454.9   1.0114      0.19773E-04      0.004  0.20000E+26
 182.0      1.09   415.77      0.20000E+26  0.20000E+26    0.455460E-03   455.3   1.0118      0.19795E-04      0.016  0.20000E+26
 183.0      1.09   415.97      0.20000E+26  0.20000E+26    0.455364E-03   455.6   1.0122      0.19815E-04      0.036  0.20000E+26
 184.0      1.09   416.17      0.20000E+26  0.20000E+26    0.455229E-03   456.0   1.0126      0.19835E-04      0.064  0.20000E+26
 185.0      1.09   416.38      0.20000E+26  0.20000E+26    0.455056E-03   456.3   1.0130      0.19854E-04      0.101  0.20000E+26
 186.0      1.09   416.60      0.20000E+26  0.20000E+26    0.454845E-03   456.6   1.0134      0.19873E-04      0.145  0.20000E+26
 187.0      1.09   416.83      0.20000E+26  0.20000E+26    0.454595E-03   456.9   1.0138      0.19891E-04      0.197  0.20000E+26
 188.0      1.09   417.06      0.20000E+26  0.20000E+26    0.454306E-03   457.2   1.0142      0.19908E-04      0.258  0.20000E+26
 189.0      1.10   417.29      0.20000E+26  0.20000E+26    0.453979E-03   457.5   1.0146      0.19925E-04      0.326  0.20000E+26
 190.0      1.10   417.52      0.20000E+26  0.20000E+26    0.453613E-03   457.7   1.0149      0.19942E-04      0.403  0.20000E+26
 191.0      1.10   417.74      0.20000E+26  0.20000E+26    0.453209E-03   458.0   1.0153      0.19958E-04      0.487  0.20000E+26
 192.0      1.10   417.96      0.20000E+26  0.20000E+26    0.452766E-03   458.2   1.0156      0.19973E-04      0.580  0.20000E+26
 193.0      1.10   418.18      0.20000E+26  0.20000E+26    0.452284E-03   458.5   1.0160      0.19989E-04      0.681  0.20000E+26
 194.0      1.10   418.40      0.20000E+26  0.20000E+26    0.451763E-03   458.7   1.0163      0.20004E-04      0.790  0.20000E+26
 195.0      1.10   418.62      0.20000E+26  0.20000E+26    0.451203E-03   459.0   1.0166      0.20019E-04      0.907  0.20000E+26
 196.0      1.10   418.83      0.20000E+26  0.20000E+26    0.450604E-03   459.2   1.0170      0.20034E-04      1.032  0.20000E+26
 197.0      1.10   419.05      0.20000E+26  0.20000E+26    0.449967E-03   459.5   1.0173      0.20049E-04      1.166  0.20000E+26
 198.0      1.11   419.27      0.20000E+26  0.20000E+26    0.449290E-03   459.7   1.0176      0.20065E-04      1.307  0.20000E+26
 199.0      1.11   419.49      0.20000E+26  0.20000E+26    0.448574E-03   460.0   1.0180      0.20081E-04      1.457  0.20000E+26
 200.0      1.11   419.72      0.20000E+26  0.20000E+26    0.447819E-03   460.3   1.0184      0.20097E-04      1.615  0.20000E+26
 201.0      1.11   419.94      0.20000E+26  0.20000E+26    0.447025E-03   460.5   1.0187      0.20114E-04      1.781  0.20000E+26
 202.0      1.11   420.17      0.20000E+26  0.20000E+26    0.446191E-03   460.8   1.0191      0.20132E-04      1.956  0.20000E+26
 203.0      1.11   420.41      0.20000E+26  0.20000E+26    0.445317E-03   461.1   1.0195      0.20150E-04      2.139  0.20000E+26
 204.0      1.11   420.65      0.20000E+26  0.20000E+26    0.444405E-03   461.4   1.0199      0.20169E-04      2.330  0.20000E+26
 205.0      1.11   420.89      0.20000E+26  0.20000E+26    0.443452E-03   461.8   1.0203      0.20188E-04      2.529  0.20000E+26
 206.0      1.12   421.15      0.20000E+26  0.20000E+26    0.442460E-03   462.1   1.0208      0.20209E-04      2.737  0.20000E+26
 207.0      1.12   421.41      0.20000E+26  0.20000E+26    0.441429E-03   462.5   1.0212      0.20231E-04      2.953  0.20000E+26
 208.0      1.12   421.67      0.20000E+26  0.20000E+26    0.440357E-03   462.9   1.0217      0.20254E-04      3.177  0.20000E+26
 209.0      1.12   421.95      0.20000E+26  0.20000E+26    0.439246E-03   463.3   1.0222      0.20279E-04      3.409  0.20000E+26
 210.0      1.12   422.23      0.20000E+26  0.20000E+26    0.438094E-03   463.7   1.0228      0.20304E-04      3.650  0.20000E+26
 211.0      1.12   422.52      0.20000E+26  0.20000E+26    0.436903E-03   464.2   1.0234      0.20332E-04      3.900  0.20000E+26
 212.0      1.13   422.82      0.20000E+26  0.20000E+26    0.435671E-03   464.6   1.0240      0.20360E-04      4.157  0.20000E+26
 213.0      1.13   423.13      0.20000E+26  0.20000E+26    0.434400E-03   465.1   1.0246      0.20391E-04      4.423  0.20000E+26
 214.0      1.13   423.46      0.20000E+26  0.20000E+26    0.433088E-03   465.7   1.0252      0.20423E-04      4.698  0.20000E+26
 215.0      1.13   423.79      0.20000E+26  0.20000E+26    0.431736E-03   466.2   1.0259      0.20456E-04      4.981  0.20000E+26
 216.0      1.14   424.13      0.20000E+26  0.20000E+26    0.430344E-03   466.8   1.0267      0.20492E-04      5.272  0.20000E+26
 217.0      1.14   424.49      0.20000E+26  0.20000E+26    0.428912E-03   467.5   1.0274      0.20529E-04      5.572  0.20000E+26
 218.0      1.14   424.85      0.20000E+26  0.20000E+26    0.427439E-03   468.1   1.0282      0.20569E-04      5.880  0.20000E+26
 219.0      1.14   425.23      0.20000E+26  0.20000E+26    0.425926E-03   468.8   1.0291      0.20610E-04      6.197  0.20000E+26
 220.0      1.15   425.63      0.20000E+26  0.20000E+26    0.424373E-03   469.6   1.0300      0.20654E-04      6.522  0.20000E+26
 221.0      1.15   426.04      0.20000E+26  0.20000E+26    0.422780E-03   470.4   1.0309      0.20700E-04      6.855  0.20000E+26
 222.0      1.15   426.46      0.20000E+26  0.20000E+26    0.421146E-03   471.2   1.0319      0.20748E-04      7.197  0.20000E+26
 223.0      1.16   426.90      0.20000E+26  0.20000E+26    0.419472E-03   472.0   1.0329      0.20799E-04      7.548  0.20000E+26
 224.0      1.16   427.35      0.20000E+26  0.20000E+26    0.417758E-03   472.9   1.0340      0.20853E-04      7.906  0.20000E+26
 225.0      1.16   427.82      0.20000E+26  0.20000E+26    0.416003E-03   473.9   1.0351      0.20909E-04      8.274  0.20000E+26
 226.0      1.17   428.31      0.20000E+26  0.20000E+26    0.414208E-03   474.9   1.0363      0.20968E-04      8.649  0.20000E+26
 227.0      1.17   428.81      0.20000E+26  0.20000E+26    0.412374E-03   476.0   1.0375      0.21030E-04      9.033  0.20000E+26
 228.0      1.18   429.33      0.20000E+26  0.20000E+26    0.410499E-03   477.1   1.0388      0.21096E-04      9.425  0.20000E+26
 229.0      1.18   429.88      0.20000E+26  0.20000E+26    0.408584E-03   478.2   1.0402      0.21164E-04      9.826  0.20000E+26
 230.0      1.19   430.44      0.20000E+26  0.20000E+26    0.406630E-03   479.4   1.0416      0.21236E-04     10.235  0.20000E+26
 231.0      1.19   431.02      0.20000E+26  0.20000E+26    0.404636E-03   480.7   1.0432      0.21312E-04     10.652  0.20000E+26
 232.0      1.20   431.63      0.20000E+26  0.20000E+26    0.402602E-03   482.1   1.0447      0.21391E-04     11.078  0.20000E+26
 233.0      1.20   432.26      0.20000E+26  0.20000E+26    0.400529E-03   483.5   1.0464      0.21474E-04     11.512  0.20000E+26
 234.0      1.21   432.91      0.20000E+26  0.20000E+26    0.398417E-03   484.9   1.0481      0.21562E-04     11.954  0.20000E+26
 235.0      1.21   433.58      0.20000E+26  0.20000E+26    0.396266E-03   486.5   1.0500      0.21653E-04     12.404  0.20000E+26
 236.0      1.22   434.29      0.20000E+26  0.20000E+26    0.394076E-03   488.1   1.0519      0.21750E-04     12.862  0.20000E+26
 237.0      1.23   435.02      0.20000E+26  0.20000E+26    0.391847E-03   489.8   1.0539      0.21851E-04     13.329  0.20000E+26
 238.0      1.23   435.77      0.20000E+26  0.20000E+26    0.389580E-03   491.6   1.0560      0.21957E-04     13.803  0.20000E+26
 239.0      1.24   436.56      0.20000E+26  0.20000E+26    0.387275E-03   493.5   1.0582      0.22068E-04     14.286  0.20000E+26
 240.0      1.25   437.37      0.20000E+26  0.20000E+26    0.384932E-03   495.4   1.0605      0.22183E-04     14.776  0.20000E+26
 241.0      1.26   438.20      0.20000E+26  0.20000E+26    0.382551E-03   497.5   1.0629      0.22303E-04     15.274  0.20000E+26
 242.0      1.26   439.07      0.20000E+26  0.20000E+26    0.380133E-03   499.6   1.0654      0.22429E-04     15.780  0.20000E+26
 243.0      1.27   439.96      0.20000E+26  0.20000E+26    0.377679E-03   501.8   1.0680      0.22560E-04     16.294  0.20000E+26
 244.0      1.28   440.88      0.20000E+26  0.20000E+26    0.375187E-03   504.1   1.0707      0.22696E-04     16.815  0.20000E+26
 245.0      1.29   441.83      0.20000E+26  0.20000E+26    0.372660E-03   506.4   1.0735      0.22838E-04     17.344  0.20000E+26
 246.0      1.30   442.81      0.20000E+26  0.20000E+26    0.370097E-03   508.9   1.0765      0.22987E-04     17.881  0.20000E+26
 247.0      1.31   443.83      0.20000E+26  0.20000E+26    0.367498E-03   511.5   1.0795      0.23141E-04     18.424  0.20000E+26
 248.0      1.32   444.87      0.20000E+26  0.20000E+26    0.364865E-03   514.2   1.0827      0.23302E-04     18.976  0.20000E+26
 249.0      1.33   445.96      0.20000E+26  0.20000E+26    0.362197E-03   517.0   1.0861      0.23470E-04     19.534  0.20000E+26
 250.0      1.35   447.08      0.20000E+26  0.20000E+26    0.359495E-03   519.9   1.0896      0.23646E-04     20.099  0.20000E+26
 251.0      1.36   448.23      0.20000E+26  0.20000E+26    0.356759E-03   523.0   1.0932      0.23829E-04     20.672  0.20000E+26
 252.0      1.37   449.43      0.20000E+26  0.20000E+26    0.353991E-03   526.1   1.0970      0.24020E-04     21.251  0.20000E+26
 253.0      1.38   450.67      0.20000E+26  0.20000E+26    0.351190E-03   529.4   1.1010      0.24219E-04     21.837  0.20000E+26
 254.0      1.40   451.94      0.20000E+26  0.20000E+26    0.348358E-03   532.9   1.1052      0.24427E-04     22.430  0.20000E+26
 255.0      1.41   453.26      0.20000E+26  0.20000E+26    0.345494E-03   536.4   1.1095      0.24644E-04     23.029  0.20000E+26
 256.0      1.43   454.62      0.20000E+26  0.20000E+26    0.342600E-03   540.2   1.1140      0.24869E-04     23.635  0.20000E+26
 257.0      1.44   456.02      0.20000E+26  0.20000E+26    0.339676E-03   544.0   1.1187      0.25102E-04     24.247  0.20000E+26
 258.0      1.46   457.44      0.20000E+26  0.20000E+26    0.336723E-03   547.9   1.1235      0.25343E-04     24.865  0.20000E+26
 259.0      1.48   458.90      0.20000E+26  0.20000E+26    0.333741E-03   552.0   1.1285      0.25592E-04     25.489  0.20000E+26
 260.0      1.49   460.40      0.20000E+26  0.20000E+26    0.330731E-03   556.2   1.1337      0.25850E-04     26.119  0.20000E+26
 261.0      1.51   461.93      0.20000E+26  0.20000E+26    0.327694E-03   560.5   1.1391      0.26116E-04     26.755  0.20000E+26
 262.0      1.53   463.50      0.20000E+26  0.20000E+26    0.324631E-03   565.0   1.1446      0.26391E-04     27.396  0.20000E+26
 263.0      1.55   465.11      0.20000E+26  0.20000E+26    0.321542E-03   569.6   1.1504      0.26677E-04     28.042  0.20000E+26
 264.0      1.57   466.75      0.20000E+26  0.20000E+26    0.318429E-03   574.4   1.1564      0.26971E-04     28.694  0.20000E+26
 265.0      1.59   468.44      0.20000E+26  0.20000E+26    0.315291E-03   579.3   1.1626      0.27277E-04     29.350  0.20000E+26
 266.0      1.61   470.17      0.20000E+26  0.20000E+26    0.312131E-03   584.4   1.1690      0.27592E-04     30.012  0.20000E+26
 267.0      1.63   471.94      0.20000E+26  0.20000E+26    0.308949E-03   589.7   1.1756      0.27919E-04     30.678  0.20000E+26
 268.0      1.65   473.75      0.20000E+26  0.20000E+26    0.305745E-03   595.1   1.1825      0.28258E-04     31.348  0.20000E+26
 269.0      1.68   475.59      0.20000E+26  0.20000E+26    0.302521E-03   600.7   1.1896      0.28455E-04     32.023  0.20000E+26
 270.0      1.70   477.48      0.20000E+26  0.20000E+26    0.299278E-03   606.4   1.1970      0.28815E-04     32.701  0.20000E+26
 271.0      1.73   479.41      0.20000E+26  0.20000E+26    0.296016E-03   612.4   1.2047      0.29189E-04     33.384  0.20000E+26
 272.0      1.76   481.38      0.20000E+26  0.20000E+26    0.292738E-03   278.6   1.2126      0.29575E-04     34.070  0.20000E+26
 273.0      1.78   483.34      0.20000E+26  0.20000E+26    0.289442E-03   281.4   1.2208      0.29973E-04     34.760  0.20000E+26
 274.0      1.81   485.33      0.20000E+26  0.20000E+26    0.286132E-03   284.3   1.2292      0.30382E-04     35.452  0.20000E+26
 275.0      1.84   487.36      0.20000E+26  0.20000E+26    0.282807E-03   287.3   1.2379      0.30803E-04     36.148  0.20000E+26
 276.0      1.87   489.43      0.20000E+26  0.20000E+26    0.279470E-03   290.4   1.2468      0.31237E-04     36.847  0.20000E+26
 277.0      1.90   491.53      0.20000E+26  0.20000E+26    0.276120E-03   293.5   1.2561      0.31684E-04     37.548  0.20000E+26
 278.0      1.93   493.68      0.20000E+26  0.20000E+26    0.272759E-03   296.8   1.2656      0.32144E-04     38.251  0.20000E+26
 279.0      1.96   495.86      0.20000E+26  0.20000E+26    0.269389E-03   300.1   1.2755      0.32618E-04     38.956  0.20000E+26
 280.0      2.00   498.08      0.20000E+26  0.20000E+26    0.266010E-03   303.5   1.2856      0.33106E-04     39.664  0.20000E+26
 281.0      2.03   500.34      0.20000E+26  0.20000E+26    0.262624E-03   307.0   1.2961      0.33609E-04     40.372  0.20000E+26
 282.0      2.07   502.64      0.20000E+26  0.20000E+26    0.259231E-03   310.6   1.3069      0.34127E-04     41.082  0.20000E+26
 283.0      2.11   504.99      0.20000E+26  0.20000E+26    0.255834E-03   314.3   1.3181      0.34660E-04     41.793  0.20000E+26
 284.0      2.15   507.37      0.20000E+26  0.20000E+26    0.252433E-03   318.1   1.3297      0.35210E-04     42.505  0.20000E+26
 285.0      2.19   509.80      0.20000E+26  0.20000E+26    0.249030E-03   322.0   1.3416      0.35776E-04     43.217  0.20000E+26
 286.0      2.23   512.27      0.20000E+26  0.20000E+26    0.245625E-03   326.0   1.3539      0.36360E-04     43.930  0.20000E+26
 287.0      2.27   514.78      0.20000E+26  0.20000E+26    0.242220E-03   330.1   1.3666      0.36961E-04     44.642  0.20000E+26
 288.0      2.31   517.33      0.20000E+26  0.20000E+26    0.238817E-03   334.3   1.3797      0.37580E-04     45.354  0.20000E+26
 289.0      2.36   519.93      0.20000E+26  0.20000E+26    0.235416E-03   338.6   1.3932      0.38219E-04     46.066  0.20000E+26
 290.0      2.40   522.57      0.20000E+26  0.20000E+26    0.232020E-03   343.0   1.4072      0.38876E-04     46.777  0.20000E+26
 291.0      2.45   525.25      0.20000E+26  0.20000E+26    0.228629E-03   347.5   1.4217      0.39554E-04     47.487  0.20000E+26
 292.0      2.50   527.98      0.20000E+26  0.20000E+26    0.225245E-03   352.2   1.4366      0.40252E-04     48.195  0.20000E+26
 293.0      2.55   530.75      0.20000E+26  0.20000E+26    0.221868E-03   357.0   1.4520      0.40972E-04     48.901  0.20000E+26
 294.0      2.61   533.57      0.20000E+26  0.20000E+26    0.218501E-03   361.9   1.4680      0.41713E-04     49.606  0.20000E+26
 295.0      2.66   536.43      0.20000E+26  0.20000E+26    0.215145E-03   366.9   1.4844      0.42477E-04     50.308  0.20000E+26
 296.0      2.72   539.34      0.20000E+26  0.20000E+26    0.211801E-03   372.1   1.5014      0.43265E-04     51.008  0.20000E+26
 297.0      2.78   542.29      0.20000E+26  0.20000E+26    0.208471E-03   377.4   1.5190      0.44076E-04     51.705  0.20000E+26
 298.0      2.84   545.29      0.20000E+26  0.20000E+26    0.205156E-03   382.8   1.5371      0.44911E-04     52.399  0.20000E+26
 299.0      2.90   548.34      0.20000E+26  0.20000E+26    0.201857E-03   388.4   1.5559      0.45772E-04     53.089  0.20000E+26
 300.0      2.96   551.42      0.20000E+26  0.20000E+26    0.198576E-03   394.2   1.5752      0.46659E-04     53.776  0.20000E+26
 301.0      3.03   554.56      0.20000E+26  0.20000E+26    0.195314E-03   400.0   1.5952      0.47573E-04     54.459  0.20000E+26
 302.0      3.10   557.74      0.20000E+26  0.20000E+26    0.192073E-03   406.0   1.6158      0.48514E-04     55.137  0.20000E+26
 303.0      3.17   560.96      0.20000E+26  0.20000E+26    0.188854E-03   412.2   1.6371      0.49483E-04     55.811  0.20000E+26
 304.0      3.24   564.23      0.20000E+26  0.20000E+26    0.185658E-03   418.5   1.6591      0.50481E-04     56.479  0.20000E+26
 305.0      3.32   567.54      0.20000E+26  0.20000E+26    0.182487E-03   425.0   1.6819      0.51509E-04     57.143  0.20000E+26
 306.0      3.40   570.90      0.20000E+26  0.20000E+26    0.179343E-03   431.6   1.7053      0.52566E-04     57.801  0.20000E+26
 307.0      3.48   574.30      0.20000E+26  0.20000E+26    0.176226E-03   438.4   1.7295      0.53655E-04     58.453  0.20000E+26
 308.0      3.56   577.74      0.20000E+26  0.20000E+26    0.173138E-03   445.4   1.7545      0.54775E-04     59.100  0.20000E+26
 309.0      3.65   581.23      0.20000E+26  0.20000E+26    0.170081E-03   452.5   1.7802      0.55927E-04     59.739  0.20000E+26
 310.0      3.74   584.75      0.20000E+26  0.20000E+26    0.167056E-03   459.8   1.8068      0.57112E-04     60.372  0.20000E+26
 311.0      3.83   588.32      0.20000E+26  0.20000E+26    0.164064E-03   467.3   1.8342      0.58330E-04     60.999  0.20000E+26
 312.0      3.92   591.92      0.20000E+26  0.20000E+26    0.161106E-03   474.9   1.8624      0.59582E-04     61.618  0.20000E+26
 313.0      4.02   595.56      0.20000E+26  0.20000E+26    0.158185E-03   482.7   1.8915      0.60868E-04     62.229  0.20000E+26
 314.0      4.12   599.23      0.20000E+26  0.20000E+26    0.155301E-03   490.7   1.9215      0.62189E-04     62.832  0.20000E+26
 315.0      4.22   602.94      0.20000E+26  0.20000E+26    0.152456E-03   498.8   1.9523      0.63545E-04     63.428  0.20000E+26
 316.0      4.33   606.69      0.20000E+26  0.20000E+26    0.149651E-03   507.1   1.9841      0.64936E-04     64.015  0.20000E+26
 317.0      4.44   610.46      0.20000E+26  0.20000E+26    0.146888E-03   515.6   2.0167      0.66363E-04     64.593  0.20000E+26
 318.0      4.55   614.26      0.20000E+26  0.20000E+26    0.144167E-03   524.2   2.0502      0.67825E-04     65.162  0.20000E+26
 319.0      4.66   618.09      0.20000E+26  0.20000E+26    0.141491E-03   533.0   2.0847      0.69322E-04     65.723  0.20000E+26
 320.0      4.78   621.93      0.20000E+26  0.20000E+26    0.138860E-03   542.0   2.1201      0.70855E-04     66.273  0.20000E+26
 321.0      4.90   625.80      0.20000E+26  0.20000E+26    0.136275E-03   551.1   2.1563      0.72423E-04     66.814  0.20000E+26
 322.0      5.03   629.69      0.20000E+26  0.20000E+26    0.133739E-03   560.4   2.1935      0.74025E-04     67.345  0.20000E+26
 323.0      5.15   633.59      0.20000E+26  0.20000E+26    0.131251E-03   569.9   2.2316      0.75660E-04     67.865  0.20000E+26
 324.0      5.28   637.50      0.20000E+26  0.20000E+26    0.128814E-03   579.4   2.2705      0.77328E-04     68.375  0.20000E+26
 325.0      5.41   641.42      0.20000E+26  0.20000E+26    0.126429E-03   589.1   2.3103      0.79028E-04     68.875  0.20000E+26
 326.0      5.55   645.34      0.20000E+26  0.20000E+26    0.124096E-03   598.9   2.3510      0.80759E-04     69.363  0.20000E+26
 327.0      5.69   649.25      0.20000E+26  0.20000E+26    0.121818E-03   608.9   2.3924      0.82518E-04     69.840  0.20000E+26
 328.0      5.83   653.16      0.20000E+26  0.20000E+26    0.119594E-03   618.9   2.4346      0.84304E-04     70.305  0.20000E+26
 329.0      5.97   657.06      0.20000E+26  0.20000E+26    0.117427E-03   629.0   2.4775      0.86116E-04     70.759  0.20000E+26
 330.0      6.12   660.94      0.20000E+26  0.20000E+26    0.115317E-03   639.2   2.5210      0.87949E-04     71.200  0.20000E+26
 331.0      6.26   664.80      0.20000E+26  0.20000E+26    0.113265E-03   649.5   2.5651      0.89803E-04     71.630  0.20000E+26
 332.0      6.41   668.62      0.20000E+26  0.20000E+26    0.111272E-03   659.8   2.6098      0.91673E-04     72.047  0.20000E+26
 333.0      6.56   672.42      0.20000E+26  0.20000E+26    0.109340E-03   670.1   2.6548      0.93556E-04     72.451  0.20000E+26
 334.0      6.71   676.17      0.20000E+26  0.20000E+26    0.107469E-03   680.5   2.7003      0.95449E-04     72.842  0.20000E+26
 335.0      6.87   679.82      0.20000E+26  0.20000E+26    0.105661E-03   694.3   2.7458      0.96784E-04     73.221  0.20000E+26
 336.0      7.02   683.41      0.20000E+26  0.20000E+26    0.103916E-03   704.6   2.7914      0.98668E-04     73.586   0.0000    
 337.0      7.17   686.95      0.20000E+26  0.20000E+26    0.102235E-03   714.8   2.8371      0.10055E-03     73.938   0.0000    
 338.0      7.32   690.41      0.20000E+26  0.20000E+26    0.100618E-03   725.0   2.8827      0.10242E-03     74.276   0.0000    
 339.0      7.47   693.79      0.20000E+26  0.20000E+26    0.990682E-04   735.0   2.9279      0.10428E-03     74.601  0.59605E-07
 340.0      7.62   697.10      0.20000E+26  0.20000E+26    0.975845E-04   744.8   2.9728      0.10611E-03     74.911  0.23842E-06
 341.0      7.77   700.31      0.20000E+26  0.20000E+26    0.961683E-04   754.5   3.0172      0.10792E-03     75.208  0.11921E-05
 342.0      7.92   703.43      0.20000E+26  0.20000E+26    0.948201E-04   763.9   3.0609      0.10970E-03     75.490  0.40531E-05
 343.0      8.06   706.47      0.20000E+26  0.20000E+26    0.935408E-04   773.1   3.1037      0.11144E-03     75.757  0.11921E-04
 344.0      8.20   709.44      0.20000E+26  0.20000E+26    0.923309E-04   782.0   3.1457      0.11313E-03     76.011  0.30637E-04
 345.0      8.34   712.39      0.20000E+26  0.20000E+26    0.911912E-04   790.6   3.1867      0.11478E-03     76.249  0.71108E-04
 346.0      8.47   715.37      0.20000E+26  0.20000E+26    0.901222E-04   799.0   3.2270      0.11639E-03     76.473  0.15187E-03
 347.0      8.60   718.50      0.20000E+26  0.20000E+26    0.891244E-04   807.1   3.2666      0.11795E-03     76.682  0.30315E-03
 348.0      8.73   721.92       721.32       1504.9        0.881984E-04   815.2   3.3062      0.11947E-03     76.875  0.57203E-03
 349.0      8.87   725.88       724.69       1510.8        0.873447E-04   823.2   3.3463      0.12097E-03     77.054  0.10288E-02
 350.0      9.01   730.71       728.54       1517.5        0.865638E-04   831.4   3.3882      0.12246E-03     77.218  0.17752E-02
 351.0      9.16   736.86       733.19       1525.6        0.858559E-04   840.1   3.4336      0.12399E-03     77.366  0.29548E-02
 352.0      9.33   744.95       739.02       1535.8        0.852216E-04   849.7   3.4846      0.12561E-03     77.498  0.47649E-02
 353.0      9.53   755.77       746.52       1548.9        0.846611E-04   860.7   3.5443      0.12736E-03     77.616  0.74701E-02
 354.0      9.77   770.31       756.26       1565.8        0.841747E-04   873.9   3.6167      0.12933E-03     77.718  0.11418E-01
 355.0     10.07   789.80       768.94       1587.9        0.837627E-04   890.0   3.7063      0.13162E-03     77.804  0.17056E-01
 356.0     10.44   815.68       785.30       1616.4        0.834254E-04   910.0   3.8190      0.13433E-03     77.874  0.24945E-01
 357.0     10.92   849.57       806.07       1652.7        0.831628E-04   935.2   3.9611      0.13756E-03     77.929  0.35774E-01
 358.0     11.51   893.24       831.87       1697.8        0.829751E-04   966.6   4.1394      0.14142E-03     77.969  0.50367E-01
 359.0     12.25   948.48       863.19       1752.6        0.828625E-04  1005.4   4.3612      0.14535E-03     77.992  0.69672E-01
 360.0     13.15   1016.9       900.08       1817.3        0.828249E-04  1052.7   4.6323      0.15067E-03     78.000  0.94743E-01
 361.0     14.24   1099.6       941.97       1891.0        0.828624E-04  1109.5   4.9576      0.15674E-03     77.992  0.12668    
 362.0     15.52   1197.7       988.20       1972.5        0.829751E-04  1176.3   5.3408      0.16295E-03     77.969  0.16656    
 363.0     16.98   1310.6       1037.0       2058.8        0.831627E-04  1252.5   5.7792      0.17030E-03     77.929  0.21526    
 364.0     18.62   1438.2       1087.0       2147.6        0.834253E-04  1337.9   6.2720      0.17762E-03     77.874  0.27331    
 365.0     20.40   1577.0       1134.7       2232.6        0.837626E-04  1430.1   6.8047      0.18560E-03     77.804  0.34068    
 366.0     22.29   1725.9       1180.6       2314.5        0.841746E-04  1528.2   7.3723      0.19325E-03     77.718  0.41651    
 367.0     24.23   1880.5       1222.9       2390.2        0.846609E-04  1628.8   7.9559      0.20075E-03     77.616  0.49895    
 368.0     26.14   2034.3       1259.9       2456.6        0.852214E-04  1727.1   8.5285      0.20770E-03     77.498  0.58505    
 369.0     27.89   2178.3       1289.3       2509.4        0.858557E-04  1816.6   9.0534      0.21392E-03     77.366  0.67094    
 370.0     29.40   2307.1       1312.0       2550.2        0.865636E-04  1892.9   9.5070      0.21870E-03     77.218  0.75218    
 371.0     30.61   2415.8       1328.2       2579.5        0.873445E-04  1952.4   9.8690      0.22232E-03     77.054  0.82441    
 372.0     31.42   2497.3       1338.3       2597.8        0.881982E-04  1990.2   10.112      0.22434E-03     76.875  0.88423    
 373.0     31.82   2550.5       1342.9       2606.0        0.891241E-04  2005.6   10.231      0.22437E-03     76.682  0.92984    
 374.0     31.87   2579.7       1343.2       2606.6        0.901219E-04  2002.0   10.247      0.22340E-03     76.473  0.96147    
 375.0     31.66   2590.7       1340.5       2601.6        0.911909E-04  1984.0   10.183      0.22141E-03     76.249  0.98113    
 376.0     31.15   2579.6      0.20000E+26  0.20000E+26    0.923306E-04  1950.4   10.030      0.21829E-03     76.011  0.99191    
 377.0     30.61   2568.2      0.20000E+26  0.20000E+26    0.935404E-04  1914.7   9.8677      0.21499E-03     75.757  0.20000E+26
 378.0     30.05   2556.5      0.20000E+26  0.20000E+26    0.948197E-04  1878.3   9.7023      0.21160E-03     75.490  0.20000E+26
 379.0     29.49   2544.5      0.20000E+26  0.20000E+26    0.961679E-04  1841.5   9.5341      0.20814E-03     75.208  0.20000E+26
 380.0     28.93   2532.3      0.20000E+26  0.20000E+26    0.975841E-04  1804.4   9.3636      0.20462E-03     74.911  0.20000E+26
 381.0     28.35   2519.8      0.20000E+26  0.20000E+26    0.990678E-04  1767.0   9.1915      0.20105E-03     74.601  0.20000E+26
 382.0     27.77   2507.2      0.20000E+26  0.20000E+26    0.100618E-03  1729.6   9.0183      0.19746E-03     74.276  0.20000E+26
 383.0     27.20   2494.4      0.20000E+26  0.20000E+26    0.102234E-03  1692.2   8.8446      0.19383E-03     73.938  0.20000E+26
 384.0     26.62   2481.4      0.20000E+26  0.20000E+26    0.103915E-03  1654.9   8.6708      0.19020E-03     73.586  0.20000E+26
 385.0     26.04   2468.4      0.20000E+26  0.20000E+26    0.105660E-03  1618.0   8.4973      0.18656E-03     73.221  0.20000E+26
 386.0     25.46   2455.0      0.20000E+26  0.20000E+26    0.107469E-03  1581.2   8.3242      0.18322E-03     72.843  0.20000E+26
 387.0     24.89   2441.6      0.20000E+26  0.20000E+26    0.109340E-03  1545.0   8.1523      0.17959E-03     72.451  0.20000E+26
 388.0     24.32   2428.1      0.20000E+26  0.20000E+26    0.111272E-03  1509.2   7.9820      0.17598E-03     72.047  0.20000E+26
 389.0     23.76   2414.5      0.20000E+26  0.20000E+26    0.113264E-03  1473.9   7.8135      0.17240E-03     71.630  0.20000E+26
 390.0     23.20   2400.9      0.20000E+26  0.20000E+26    0.115316E-03  1439.3   7.6471      0.16885E-03     71.200  0.20000E+26
 391.0     22.66   2387.3      0.20000E+26  0.20000E+26    0.117426E-03  1405.3   7.4832      0.16534E-03     70.759  0.20000E+26
 392.0     22.12   2373.7      0.20000E+26  0.20000E+26    0.119594E-03  1372.1   7.3218      0.16188E-03     70.305  0.20000E+26
 393.0     21.59   2360.1      0.20000E+26  0.20000E+26    0.121817E-03  1339.5   7.1633      0.15847E-03     69.840  0.20000E+26
 394.0     21.07   2346.5      0.20000E+26  0.20000E+26    0.124096E-03  1307.7   7.0077      0.15511E-03     69.363  0.20000E+26
 395.0     20.56   2333.0      0.20000E+26  0.20000E+26    0.126428E-03  1276.6   6.8552      0.15180E-03     68.875  0.20000E+26
 396.0     20.07   2319.5      0.20000E+26  0.20000E+26    0.128814E-03  1246.3   6.7059      0.14856E-03     68.376  0.20000E+26
 397.0     19.58   2306.1      0.20000E+26  0.20000E+26    0.131251E-03  1216.8   6.5598      0.14537E-03     67.866  0.20000E+26
 398.0     19.10   2292.7      0.20000E+26  0.20000E+26    0.133738E-03  1188.1   6.4171      0.14226E-03     67.345  0.20000E+26
 399.0     18.64   2279.5      0.20000E+26  0.20000E+26    0.136275E-03  1160.2   6.2778      0.13920E-03     66.814  0.20000E+26
 400.0     18.19   2266.3      0.20000E+26  0.20000E+26    0.138859E-03  1133.1   6.1419      0.13621E-03     66.273  0.20000E+26
 401.0     17.75   2253.6      0.20000E+26  0.20000E+26    0.141490E-03  1106.9   6.0104      0.13325E-03     65.723  0.20000E+26
 402.0     17.32   2241.0      0.20000E+26  0.20000E+26    0.144167E-03  1081.4   5.8823      0.13040E-03     65.163  0.20000E+26
 403.0     16.91   2228.5      0.20000E+26  0.20000E+26    0.146887E-03  1056.7   5.7575      0.12763E-03     64.593  0.20000E+26
 404.0     16.50   2216.1      0.20000E+26  0.20000E+26    0.149651E-03  1032.8   5.6361      0.12492E-03     64.015  0.20000E+26
 405.0     16.11   2203.8      0.20000E+26  0.20000E+26    0.152455E-03  1009.6   5.5181      0.12228E-03     63.428  0.20000E+26
 406.0     15.72   2191.6      0.20000E+26  0.20000E+26    0.155300E-03   987.1   5.4033      0.11971E-03     62.833  0.20000E+26
 407.0     15.35   2179.6      0.20000E+26  0.20000E+26    0.158184E-03   965.3   5.2918      0.11720E-03     62.229  0.20000E+26
 408.0     14.99   2167.7      0.20000E+26  0.20000E+26    0.161105E-03   944.2   5.1835      0.11476E-03     61.618  0.20000E+26
 409.0     14.64   2155.9      0.20000E+26  0.20000E+26    0.164063E-03   923.7   5.0783      0.11238E-03     60.999  0.20000E+26
 410.0     14.30   2144.2      0.20000E+26  0.20000E+26    0.167055E-03   903.9   4.9763      0.11007E-03     60.373  0.20000E+26
 411.0     13.97   2132.7      0.20000E+26  0.20000E+26    0.170080E-03   884.8   4.8773      0.10782E-03     59.740  0.20000E+26
 412.0     13.65   2121.3      0.20000E+26  0.20000E+26    0.173137E-03   866.3   4.7812      0.10563E-03     59.100  0.20000E+26
 413.0     13.34   2110.0      0.20000E+26  0.20000E+26    0.176225E-03   848.3   4.6880      0.10350E-03     58.454  0.20000E+26
 414.0     13.04   2098.9      0.20000E+26  0.20000E+26    0.179342E-03   831.0   4.5977      0.10144E-03     57.801  0.20000E+26
 415.0     12.75   2087.9      0.20000E+26  0.20000E+26    0.182486E-03   814.2   4.5102      0.99426E-04     57.143  0.20000E+26
 416.0     12.46   2077.1      0.20000E+26  0.20000E+26    0.185657E-03   797.9   4.4253      0.97473E-04     56.480  0.20000E+26
 417.0     12.19   2066.4      0.20000E+26  0.20000E+26    0.188853E-03   782.2   4.3431      0.95576E-04     55.811  0.20000E+26
 418.0     11.93   2055.9      0.20000E+26  0.20000E+26    0.192072E-03   767.0   4.2636      0.93803E-04     55.137  0.20000E+26
 419.0     11.67   2045.7      0.20000E+26  0.20000E+26    0.195313E-03   752.4   4.1866      0.92014E-04     54.459  0.20000E+26
 420.0     11.42   2035.5      0.20000E+26  0.20000E+26    0.198575E-03   738.2   4.1120      0.90278E-04     53.776  0.20000E+26
 421.0     11.18   2025.5      0.20000E+26  0.20000E+26    0.201856E-03   724.4   4.0397      0.88591E-04     53.090  0.20000E+26
 422.0     10.95   2015.7      0.20000E+26  0.20000E+26    0.205155E-03   711.1   3.9697      0.86953E-04     52.399  0.20000E+26
 423.0     10.72   2005.9      0.20000E+26  0.20000E+26    0.208470E-03   698.3   3.9019      0.85363E-04     51.705  0.20000E+26
 424.0     10.50   1996.4      0.20000E+26  0.20000E+26    0.211800E-03  1217.4   3.8362      0.83819E-04     51.008  0.20000E+26
 425.0     10.28   1985.9      0.20000E+26  0.20000E+26    0.215144E-03  1200.5   3.7709      0.82298E-04     50.309  0.20000E+26
 426.0     10.07   1975.5      0.20000E+26  0.20000E+26    0.218500E-03  1184.0   3.7074      0.80816E-04     49.606  0.20000E+26
 427.0      9.86   1965.2      0.20000E+26  0.20000E+26    0.221867E-03  1167.8   3.6455      0.79367E-04     48.902  0.20000E+26
 428.0      9.66   1955.0      0.20000E+26  0.20000E+26    0.225244E-03  1151.8   3.5850      0.77947E-04     48.195  0.20000E+26
 429.0      9.47   1944.9      0.20000E+26  0.20000E+26    0.228628E-03  1136.1   3.5258      0.76555E-04     47.487  0.20000E+26
 430.0      9.27   1934.8      0.20000E+26  0.20000E+26    0.232019E-03  1120.6   3.4679      0.75190E-04     46.777  0.20000E+26
 431.0      9.08   1924.8      0.20000E+26  0.20000E+26    0.235416E-03  1105.3   3.4112      0.73849E-04     46.066  0.20000E+26
 432.0      8.90   1914.8      0.20000E+26  0.20000E+26    0.238816E-03  1090.3   3.3557      0.72533E-04     45.355  0.20000E+26
 433.0      8.72   1904.8      0.20000E+26  0.20000E+26    0.242219E-03  1075.5   3.3014      0.71242E-04     44.642  0.20000E+26
 434.0      8.54   1895.0      0.20000E+26  0.20000E+26    0.245624E-03  1060.8   3.2482      0.69974E-04     43.930  0.20000E+26
 435.0      8.37   1885.1      0.20000E+26  0.20000E+26    0.249029E-03  1046.4   3.1961      0.68731E-04     43.217  0.20000E+26
 436.0      8.20   1875.4      0.20000E+26  0.20000E+26    0.252432E-03  1032.3   3.1452      0.67511E-04     42.505  0.20000E+26
 437.0      8.03   1865.6      0.20000E+26  0.20000E+26    0.255833E-03  1018.3   3.0954      0.66316E-04     41.793  0.20000E+26
 438.0      7.87   1856.1      0.20000E+26  0.20000E+26    0.259231E-03  1004.6   3.0468      0.65202E-04     41.082  0.20000E+26
 439.0      7.71   1846.7      0.20000E+26  0.20000E+26    0.262623E-03   991.0   2.9993      0.64054E-04     40.372  0.20000E+26
 440.0      7.56   1837.3      0.20000E+26  0.20000E+26    0.266009E-03   977.8   2.9529      0.62930E-04     39.664  0.20000E+26
 441.0      7.41   1827.9      0.20000E+26  0.20000E+26    0.269388E-03   964.7   2.9076      0.61828E-04     38.957  0.20000E+26
 442.0      7.26   1818.6      0.20000E+26  0.20000E+26    0.272758E-03   951.7   2.8630      0.60742E-04     38.251  0.20000E+26
 443.0      7.11   1809.2      0.20000E+26  0.20000E+26    0.276119E-03   938.8   2.8188      0.59662E-04     37.548  0.20000E+26
 444.0      6.96   1799.8      0.20000E+26  0.20000E+26    0.279469E-03   925.9   2.7750      0.58590E-04     36.847  0.20000E+26
 445.0      6.82   1790.4      0.20000E+26  0.20000E+26    0.282807E-03   913.1   2.7317      0.57527E-04     36.148  0.20000E+26
 446.0      6.68   1780.9      0.20000E+26  0.20000E+26    0.286131E-03   900.3   2.6889      0.56474E-04     35.453  0.20000E+26
 447.0      6.54   1771.4      0.20000E+26  0.20000E+26    0.289442E-03   887.6   2.6466      0.55430E-04     34.760  0.20000E+26
 448.0      6.40   1761.9      0.20000E+26  0.20000E+26    0.292737E-03   874.9   2.6049      0.54397E-04     34.070  0.20000E+26
 449.0      6.26   1752.3      0.20000E+26  0.20000E+26    0.296016E-03   862.4   2.5638      0.53375E-04     33.384  0.20000E+26
 450.0      6.12   1742.7      0.20000E+26  0.20000E+26    0.299277E-03   849.9   2.5232      0.52365E-04     32.702  0.20000E+26
 451.0      5.99   1733.2      0.20000E+26  0.20000E+26    0.302520E-03   837.5   2.4832      0.51367E-04     32.023  0.20000E+26
 452.0      5.86   1723.6      0.20000E+26  0.20000E+26    0.305744E-03   825.2   2.4439      0.50382E-04     31.348  0.20000E+26
 453.0      5.73   1714.0      0.20000E+26  0.20000E+26    0.308948E-03   813.0   2.4051      0.49409E-04     30.678  0.20000E+26
 454.0      5.60   1704.4      0.20000E+26  0.20000E+26    0.312130E-03   801.0   2.3670      0.48450E-04     30.012  0.20000E+26
 455.0      5.48   1694.8      0.20000E+26  0.20000E+26    0.315291E-03   789.0   2.3296      0.47504E-04     29.350  0.20000E+26
 456.0      5.36   1685.2      0.20000E+26  0.20000E+26    0.318428E-03   777.2   2.2928      0.46573E-04     28.694  0.20000E+26
 457.0      5.24   1675.6      0.20000E+26  0.20000E+26    0.321541E-03   765.5   2.2566      0.45655E-04     28.042  0.20000E+26
 458.0      5.12   1666.1      0.20000E+26  0.20000E+26    0.324630E-03   753.9   2.2211      0.44751E-04     27.396  0.20000E+26
 459.0      5.00   1656.6      0.20000E+26  0.20000E+26    0.327693E-03   742.4   2.1863      0.43897E-04     26.755  0.20000E+26
 460.0      4.89   1647.2      0.20000E+26  0.20000E+26    0.330730E-03   731.0   2.1519      0.43013E-04     26.119  0.20000E+26
 461.0      4.77   1637.7      0.20000E+26  0.20000E+26    0.333740E-03   719.6   2.1180      0.42139E-04     25.489  0.20000E+26
 462.0      4.66   1628.2      0.20000E+26  0.20000E+26    0.336722E-03   708.3   2.0845      0.41274E-04     24.865  0.20000E+26
 463.0      4.55   1618.6      0.20000E+26  0.20000E+26    0.339675E-03   697.1   2.0515      0.40418E-04     24.247  0.20000E+26
 464.0      4.44   1609.0      0.20000E+26  0.20000E+26    0.342599E-03   685.9   2.0190      0.39573E-04     23.635  0.20000E+26
 465.0      4.34   1599.4      0.20000E+26  0.20000E+26    0.345494E-03   674.8   1.9869      0.38738E-04     23.030  0.20000E+26
 466.0      4.23   1589.8      0.20000E+26  0.20000E+26    0.348357E-03   663.8   1.9554      0.37914E-04     22.430  0.20000E+26
 467.0      4.13   1580.1      0.20000E+26  0.20000E+26    0.351190E-03   653.0   1.9244      0.37101E-04     21.837  0.20000E+26
 468.0      4.03   1570.4      0.20000E+26  0.20000E+26    0.353990E-03   642.2   1.8940      0.36300E-04     21.251  0.20000E+26
 469.0      3.93   1560.7      0.20000E+26  0.20000E+26    0.356759E-03   631.5   1.8640      0.35510E-04     20.672  0.20000E+26
 470.0      3.83   1551.0      0.20000E+26  0.20000E+26    0.359494E-03   620.9   1.8346      0.34732E-04     20.100  0.20000E+26
 471.0      3.73   1541.3      0.20000E+26  0.20000E+26    0.362196E-03   610.4   1.8058      0.33966E-04     19.534  0.20000E+26
 472.0      3.64   1531.6      0.20000E+26  0.20000E+26    0.364864E-03   600.0   1.7774      0.33211E-04     18.976  0.20000E+26
 473.0      3.55   1521.9      0.20000E+26  0.20000E+26    0.367497E-03   589.7   1.7496      0.32469E-04     18.425  0.20000E+26
 474.0      3.45   1512.2      0.20000E+26  0.20000E+26    0.370096E-03   579.6   1.7224      0.31739E-04     17.881  0.20000E+26
 475.0      3.37   1502.5      0.20000E+26  0.20000E+26    0.372659E-03   569.6   1.6957      0.31021E-04     17.344  0.20000E+26
 476.0      3.28   1492.7      0.20000E+26  0.20000E+26    0.375187E-03   559.7   1.6696      0.30316E-04     16.815  0.20000E+26
 477.0      3.19   1483.0      0.20000E+26  0.20000E+26    0.377678E-03   549.9   1.6439      0.29623E-04     16.294  0.20000E+26
 478.0      3.11   1473.3      0.20000E+26  0.20000E+26    0.380133E-03   540.2   1.6188      0.28942E-04     15.780  0.20000E+26
 479.0      3.03   1463.6      0.20000E+26  0.20000E+26    0.382550E-03   530.6   1.5943      0.28273E-04     15.274  0.20000E+26
 480.0      2.95   1454.2      0.20000E+26  0.20000E+26    0.384931E-03   521.2   1.5704      0.27646E-04     14.776  0.20000E+26
 481.0      2.87   1444.7      0.20000E+26  0.20000E+26    0.387274E-03   511.9   1.5470      0.27003E-04     14.286  0.20000E+26
 482.0      2.79   1435.2      0.20000E+26  0.20000E+26    0.389579E-03   502.8   1.5241      0.26371E-04     13.803  0.20000E+26
 483.0      2.72   1425.8      0.20000E+26  0.20000E+26    0.391846E-03   493.7   1.5017      0.25752E-04     13.329  0.20000E+26
 484.0      2.65   1416.3      0.20000E+26  0.20000E+26    0.394075E-03   484.8   1.4798      0.25144E-04     12.863  0.20000E+26
 485.0      2.57   1406.9      0.20000E+26  0.20000E+26    0.396265E-03   476.0   1.4584      0.24548E-04     12.404  0.20000E+26
 486.0      2.51   1397.5      0.20000E+26  0.20000E+26    0.398416E-03   467.3   1.4375      0.23964E-04     11.954  0.20000E+26
 487.0      2.44   1388.1      0.20000E+26  0.20000E+26    0.400529E-03   458.7   1.4171      0.23391E-04     11.512  0.20000E+26
 488.0      2.37   1378.7      0.20000E+26  0.20000E+26    0.402602E-03   450.3   1.3971      0.22829E-04     11.078  0.20000E+26
 489.0      2.31   1369.3      0.20000E+26  0.20000E+26    0.404635E-03   442.0   1.3776      0.22279E-04     10.653  0.20000E+26
 490.0      2.24   1360.0      0.20000E+26  0.20000E+26    0.406629E-03   433.8   1.3586      0.21740E-04     10.235  0.20000E+26
 491.0      2.18   1350.6      0.20000E+26  0.20000E+26    0.408584E-03   425.7   1.3400      0.21212E-04      9.826  0.20000E+26
 492.0      2.12   1341.3      0.20000E+26  0.20000E+26    0.410498E-03   417.8   1.3218      0.20695E-04      9.426  0.20000E+26
 493.0      2.06   1332.0      0.20000E+26  0.20000E+26    0.412373E-03   410.0   1.3041      0.20190E-04      9.033  0.20000E+26
 494.0      2.00   1322.8      0.20000E+26  0.20000E+26    0.414208E-03   402.3   1.2870      0.19697E-04      8.649  0.20000E+26
 495.0      1.95   1313.6      0.20000E+26  0.20000E+26    0.416003E-03   394.8   1.2703      0.19217E-04      8.274  0.20000E+26
 496.0      1.89   1304.5      0.20000E+26  0.20000E+26    0.417757E-03   387.4   1.2540      0.18748E-04      7.906  0.20000E+26
 497.0      1.84   1295.4      0.20000E+26  0.20000E+26    0.419471E-03   380.2   1.2383      0.18291E-04      7.548  0.20000E+26
 498.0      1.79   1286.4      0.20000E+26  0.20000E+26    0.421145E-03   373.1   1.2230      0.17846E-04      7.197  0.20000E+26
 499.0      1.74   1277.5      0.20000E+26  0.20000E+26    0.422779E-03   366.2   1.2081      0.17413E-04      6.855  0.20000E+26
 500.0      1.69   1268.6      0.20000E+26  0.20000E+26    0.424373E-03   359.4   1.1937      0.16991E-04      6.522  0.20000E+26
 501.0      1.65   1259.8      0.20000E+26  0.20000E+26    0.425926E-03   352.8   1.1797      0.16619E-04      6.197  0.20000E+26
 502.0      1.60   1251.1      0.20000E+26  0.20000E+26    0.427439E-03   346.2   1.1661      0.16218E-04      5.880  0.20000E+26
 503.0      1.56   1242.5      0.20000E+26  0.20000E+26    0.428912E-03   339.9   1.1529      0.15828E-04      5.572  0.20000E+26
 504.0      1.51   1233.9      0.20000E+26  0.20000E+26    0.430344E-03   333.6   1.1402      0.15448E-04      5.272  0.20000E+26
 505.0      1.47   1225.4      0.20000E+26  0.20000E+26    0.431736E-03   327.6   1.1278      0.15080E-04      4.981  0.20000E+26
 506.0      1.43   1217.0      0.20000E+26  0.20000E+26    0.433088E-03   321.6   1.1158      0.14723E-04      4.698  0.20000E+26
 507.0      1.39   1208.7      0.20000E+26  0.20000E+26    0.434400E-03   315.8   1.1043      0.14376E-04      4.424  0.20000E+26
 508.0      1.36   1200.5      0.20000E+26  0.20000E+26    0.435671E-03   310.2   1.0931      0.14039E-04      4.157  0.20000E+26
 509.0      1.32   1192.4      0.20000E+26  0.20000E+26    0.436903E-03   304.7   1.0823      0.13713E-04      3.900  0.20000E+26
 510.0      1.29   1184.4      0.20000E+26  0.20000E+26    0.438094E-03   299.3   1.0719      0.13399E-04      3.650  0.20000E+26
 511.0      1.25   1176.6      0.20000E+26  0.20000E+26    0.439245E-03   294.1   1.0620      0.13096E-04      3.409  0.20000E+26
 512.0      1.22   1168.9      0.20000E+26  0.20000E+26    0.440357E-03   289.2   1.0524      0.12806E-04      3.177  0.20000E+26
 513.0      1.19   1161.5      0.20000E+26  0.20000E+26    0.441428E-03   284.4   1.0434      0.12531E-04      2.953  0.20000E+26
 514.0      1.16   1154.4      0.20000E+26  0.20000E+26    0.442460E-03   279.9   1.0350      0.12272E-04      2.737  0.20000E+26
 515.0      1.14   1147.6      0.20000E+26  0.20000E+26    0.443452E-03   275.8   1.0272      0.12033E-04      2.529  0.20000E+26
 516.0      1.11   1141.3      0.20000E+26  0.20000E+26    0.444404E-03   271.9   1.0200      0.11813E-04      2.330  0.20000E+26
 517.0      1.09   1135.4      0.20000E+26  0.20000E+26    0.445317E-03   268.5   1.0135      0.11615E-04      2.139  0.20000E+26
 518.0      1.07   1129.9      0.20000E+26  0.20000E+26    0.446191E-03   265.3   1.0077      0.11436E-04      1.956  0.20000E+26
 519.0      1.06   1125.0      0.20000E+26  0.20000E+26    0.447024E-03   262.5   1.0026      0.11278E-04      1.781  0.20000E+26
 520.0      1.04   1120.4      0.20000E+26  0.20000E+26    0.447819E-03   260.1  0.99805      0.11139E-04      1.615  0.20000E+26
 521.0      1.03   1116.3      0.20000E+26  0.20000E+26    0.448574E-03   257.9  0.99411      0.10605E-04      1.457  0.20000E+26
 522.0      1.02   1112.7      0.20000E+26  0.20000E+26    0.449290E-03   256.1  0.99072      0.92684E-05      1.307  0.20000E+26
 523.0      1.01   1109.4      0.20000E+26  0.20000E+26    0.449967E-03   254.6  0.98784      0.79425E-05      1.166  0.20000E+26
 524.0      1.00   1106.5      0.20000E+26  0.20000E+26    0.450604E-03   253.3  0.98541      0.66137E-05      1.032  0.20000E+26
 525.0      0.99   1104.0      0.20000E+26  0.20000E+26    0.451203E-03   252.2  0.98340      0.52523E-05      0.907  0.20000E+26
 526.0      0.99   1101.8      0.20000E+26  0.20000E+26    0.451763E-03   251.4  0.98176      0.37852E-05      0.790  0.20000E+26
 527.0      0.98   1099.8      0.20000E+26  0.20000E+26    0.452283E-03   250.7  0.98045      0.19187E-05      0.681  0.20000E+26
 528.0      0.98   1098.1      0.20000E+26  0.20000E+26    0.452765E-03   250.2  0.97943       0.0000          0.580  0.20000E+26
 529.0      0.98   1096.6      0.20000E+26  0.20000E+26    0.453209E-03   249.9  0.97867       0.0000          0.487  0.20000E+26
 530.0      0.97   1095.2      0.20000E+26  0.20000E+26    0.453613E-03   249.7  0.97810       0.0000          0.403  0.20000E+26
 531.0      0.97   1093.8      0.20000E+26  0.20000E+26    0.453979E-03   249.6  0.97769       0.0000          0.326  0.20000E+26
 532.0      0.97   1092.5      0.20000E+26  0.20000E+26    0.454306E-03   249.5  0.97741       0.0000          0.258  0.20000E+26
 533.0      0.97   1091.1      0.20000E+26  0.20000E+26    0.454595E-03   249.6  0.97723       0.0000          0.197  0.20000E+26
 534.0      0.97   1089.8      0.20000E+26  0.20000E+26    0.454845E-03   249.7  0.97715       0.0000          0.145  0.20000E+26
 535.0      0.97   1088.4      0.20000E+26  0.20000E+26    0.455056E-03   249.9  0.97716       0.0000          0.101  0.20000E+26
 536.0      0.97   1087.2      0.20000E+26  0.20000E+26    0.455229E-03   250.1  0.97723       0.0000          0.064  0.20000E+26
 537.0      0.97   1085.9      0.20000E+26  0.20000E+26    0.455364E-03   250.3  0.97737       0.0000          0.036  0.20000E+26
 538.0      0.97   1084.7      0.20000E+26  0.20000E+26    0.455460E-03   250.6  0.97758       0.0000          0.016  0.20000E+26
 539.0      0.97   1083.5      0.20000E+26  0.20000E+26    0.455518E-03   250.9  0.97785       0.0000          0.004  0.20000E+26
 540.0      0.97   1082.3      0.20000E+26  0.20000E+26    0.455537E-03   251.3  0.97817       0.0000          0.000  0.20000E+26
 541.0      0.98   1081.1      0.20000E+26  0.20000E+26    0.455518E-03   251.7  0.97855       0.0000          0.004  0.20000E+26
 542.0      0.98   1080.0      0.20000E+26  0.20000E+26    0.455460E-03   252.1  0.97897       0.0000          0.016  0.20000E+26
 543.0      0.98   1078.9      0.20000E+26  0.20000E+26    0.455364E-03   252.6  0.97943       0.0000          0.036  0.20000E+26
 544.0      0.98   1077.9      0.20000E+26  0.20000E+26    0.455229E-03   253.1  0.97993       0.0000          0.064  0.20000E+26
 545.0      0.98   1076.9      0.20000E+26  0.20000E+26    0.455056E-03   253.6  0.98046      0.19593E-05      0.101  0.20000E+26
 546.0      0.98   1075.9      0.20000E+26  0.20000E+26    0.454845E-03   254.1  0.98103      0.29252E-05      0.145  0.20000E+26
 547.0      0.99   1074.9      0.20000E+26  0.20000E+26    0.454595E-03   254.6  0.98162      0.36727E-05      0.197  0.20000E+26
 548.0      0.99   1074.0      0.20000E+26  0.20000E+26    0.454306E-03   255.1  0.98222      0.43062E-05      0.258  0.20000E+26
 549.0      0.99   1073.1      0.20000E+26  0.20000E+26    0.453979E-03   255.7  0.98283      0.48619E-05      0.326  0.20000E+26
 550.0      0.99   1072.2      0.20000E+26  0.20000E+26    0.453613E-03   256.2  0.98344      0.53578E-05      0.403  0.20000E+26
 551.0      0.99   1071.4      0.20000E+26  0.20000E+26    0.453209E-03   256.7  0.98403      0.58042E-05      0.487  0.20000E+26
 552.0      1.00   1070.6      0.20000E+26  0.20000E+26    0.452766E-03   257.2  0.98461      0.62072E-05      0.580  0.20000E+26
 553.0      1.00   1069.9      0.20000E+26  0.20000E+26    0.452284E-03   257.7  0.98517      0.65720E-05      0.681  0.20000E+26
 554.0      1.00   1069.2      0.20000E+26  0.20000E+26    0.451763E-03   258.1  0.98570      0.69022E-05      0.790  0.20000E+26
 555.0      1.00   1068.5      0.20000E+26  0.20000E+26    0.451203E-03   258.6  0.98620      0.72006E-05      0.907  0.20000E+26
 556.0      1.00   1067.9      0.20000E+26  0.20000E+26    0.450604E-03   259.0  0.98667      0.74698E-05      1.032  0.20000E+26
 557.0      1.00   1067.3      0.20000E+26  0.20000E+26    0.449967E-03   259.3  0.98710      0.77117E-05      1.166  0.20000E+26
 558.0      1.01   1066.7      0.20000E+26  0.20000E+26    0.449290E-03   259.7  0.98751      0.79286E-05      1.307  0.20000E+26
 559.0      1.01   1066.2      0.20000E+26  0.20000E+26    0.448574E-03   260.0  0.98787      0.81222E-05      1.457  0.20000E+26
 560.0      1.01   1065.7      0.20000E+26  0.20000E+26    0.447819E-03   260.3  0.98819      0.82869E-05      1.615  0.20000E+26
 561.0      1.01   1065.1      0.20000E+26  0.20000E+26    0.447025E-03   260.6  0.98845      0.84182E-05      1.781  0.20000E+26
 562.0      1.01   1064.5      0.20000E+26  0.20000E+26    0.446191E-03   260.8  0.98865      0.85195E-05      1.956  0.20000E+26
 563.0      1.01   1063.8      0.20000E+26  0.20000E+26    0.445317E-03   261.0  0.98880      0.85932E-05      2.139  0.20000E+26
 564.0      1.01   1063.1      0.20000E+26  0.20000E+26    0.444405E-03   261.1  0.98889      0.86413E-05      2.330  0.20000E+26
 565.0      1.01   1062.3      0.20000E+26  0.20000E+26    0.443452E-03   261.2  0.98894      0.86662E-05      2.529  0.20000E+26
 566.0      1.01   1061.5      0.20000E+26  0.20000E+26    0.442460E-03   261.4  0.98894      0.86698E-05      2.737  0.20000E+26
 567.0      1.01   1060.7      0.20000E+26  0.20000E+26    0.441429E-03   261.4  0.98890      0.86545E-05      2.953  0.20000E+26
 568.0      1.01   1059.9      0.20000E+26  0.20000E+26    0.440357E-03   261.5  0.98883      0.86224E-05      3.177  0.20000E+26
 569.0      1.01   1059.0      0.20000E+26  0.20000E+26    0.439246E-03   261.5  0.98872      0.85757E-05      3.409  0.20000E+26
 570.0      1.01   1058.1      0.20000E+26  0.20000E+26    0.438094E-03   261.6  0.98860      0.85166E-05      3.650  0.20000E+26
 571.0      1.01   1057.3      0.20000E+26  0.20000E+26    0.436903E-03   261.6  0.98845      0.84474E-05      3.900  0.20000E+26
 572.0      1.01   1056.3      0.20000E+26  0.20000E+26    0.435671E-03   261.6  0.98829      0.83703E-05      4.157  0.20000E+26
 573.0      1.01   1055.4      0.20000E+26  0.20000E+26    0.434400E-03   261.6  0.98812      0.82877E-05      4.423  0.20000E+26
 574.0      1.01   1054.5      0.20000E+26  0.20000E+26    0.433088E-03   261.6  0.98794      0.82019E-05      4.698  0.20000E+26
 575.0      1.01   1053.6      0.20000E+26  0.20000E+26    0.431736E-03   261.6  0.98777      0.81154E-05      4.981  0.20000E+26
 576.0      1.01   1052.7      0.20000E+26  0.20000E+26    0.430344E-03   261.6  0.98760      0.80306E-05      5.272  0.20000E+26
 577.0      1.00   1051.8      0.20000E+26  0.20000E+26    0.428912E-03   261.6  0.98744      0.79499E-05      5.572  0.20000E+26
 578.0      1.00   1050.9      0.20000E+26  0.20000E+26    0.427439E-03   261.6  0.98730      0.78757E-05      5.880  0.20000E+26
 579.0      1.00   1050.1      0.20000E+26  0.20000E+26    0.425926E-03   261.6  0.98717      0.78106E-05      6.197  0.20000E+26
 580.0      1.00   1049.2      0.20000E+26  0.20000E+26    0.424373E-03   261.7  0.98706      0.77567E-05      6.522  0.20000E+26
 581.0      1.00   1048.4      0.20000E+26  0.20000E+26    0.422780E-03   261.7  0.98698      0.77162E-05      6.855  0.20000E+26
 582.0      1.00   1047.6      0.20000E+26  0.20000E+26    0.421146E-03   261.8  0.98693      0.76912E-05      7.197  0.20000E+26
 583.0      1.00   1046.8      0.20000E+26  0.20000E+26    0.419472E-03   261.9  0.98691      0.76834E-05      7.548  0.20000E+26
 584.0      1.00   1046.0      0.20000E+26  0.20000E+26    0.417758E-03   262.0  0.98693      0.76944E-05      7.906  0.20000E+26
 585.0      1.00   1045.3      0.20000E+26  0.20000E+26    0.416003E-03   262.1  0.98698      0.77255E-05      8.274  0.20000E+26
 586.0      1.00   1044.6      0.20000E+26  0.20000E+26    0.414208E-03   262.3  0.98707      0.77774E-05      8.649  0.20000E+26
 587.0      1.00   1044.0      0.20000E+26  0.20000E+26    0.412374E-03   262.5  0.98720      0.78508E-05      9.033  0.20000E+26
 588.0      1.00   1043.4      0.20000E+26  0.20000E+26    0.410499E-03   262.7  0.98737      0.79457E-05      9.425  0.20000E+26
 589.0      1.01   1042.8      0.20000E+26  0.20000E+26    0.408584E-03   262.9  0.98759      0.80622E-05      9.826  0.20000E+26
 590.0      1.01   1042.2      0.20000E+26  0.20000E+26    0.406630E-03   263.1  0.98785      0.82001E-05     10.235  0.20000E+26
 591.0      1.01   1041.7      0.20000E+26  0.20000E+26    0.404636E-03   263.4  0.98815      0.83590E-05     10.652  0.20000E+26
 592.0      1.01   1041.2      0.20000E+26  0.20000E+26    0.402602E-03   263.7  0.98850      0.85377E-05     11.078  0.20000E+26
 593.0      1.01   1040.8      0.20000E+26  0.20000E+26    0.400529E-03   264.1  0.98889      0.87350E-05     11.512  0.20000E+26
 594.0      1.01   1040.4      0.20000E+26  0.20000E+26    0.398417E-03   264.4  0.98933      0.89492E-05     11.954  0.20000E+26
 595.0      1.01   1040.0      0.20000E+26  0.20000E+26    0.396266E-03   264.8  0.98982      0.91788E-05     12.404  0.20000E+26
 596.0      1.01   1039.7      0.20000E+26  0.20000E+26    0.394076E-03   265.2  0.99035      0.94222E-05     12.862  0.20000E+26
 597.0      1.02   1039.4      0.20000E+26  0.20000E+26    0.391847E-03   265.7  0.99092      0.96780E-05     13.329  0.20000E+26
 598.0      1.02   1039.1      0.20000E+26  0.20000E+26    0.389580E-03   266.1  0.99152      0.99441E-05     13.803  0.20000E+26
 599.0      1.02   1038.9      0.20000E+26  0.20000E+26    0.387275E-03   266.6  0.99217      0.10219E-04     14.286  0.20000E+26
 600.0      1.02   1038.7      0.20000E+26  0.20000E+26    0.384932E-03   267.1  0.99286      0.10501E-04     14.776  0.20000E+26
 601.0      1.03   1038.5      0.20000E+26  0.20000E+26    0.382551E-03   267.6  0.99357      0.10789E-04     15.274  0.20000E+26
 602.0      1.03   1038.3      0.20000E+26  0.20000E+26    0.380133E-03   268.2  0.99432      0.11080E-04     15.780  0.20000E+26
 603.0      1.03   1038.2      0.20000E+26  0.20000E+26    0.377679E-03   268.7  0.99509      0.11374E-04     16.294  0.20000E+26
 604.0      1.03   1038.1      0.20000E+26  0.20000E+26    0.375187E-03   269.3  0.99589      0.11528E-04     16.815  0.20000E+26
 605.0      1.04   1037.9      0.20000E+26  0.20000E+26    0.372660E-03   269.9  0.99670      0.11559E-04     17.344  0.20000E+26
 606.0      1.04   1037.8      0.20000E+26  0.20000E+26    0.370097E-03   270.5  0.99753      0.11591E-04     17.881  0.20000E+26
 607.0      1.04   1037.7      0.20000E+26  0.20000E+26    0.367498E-03   271.1  0.99837      0.11623E-04     18.424  0.20000E+26
 608.0      1.04   1037.6      0.20000E+26  0.20000E+26    0.364865E-03   271.7  0.99922      0.11655E-04     18.976  0.20000E+26
 609.0      1.05   1037.6      0.20000E+26  0.20000E+26    0.362197E-03   272.3   1.0001      0.11687E-04     19.534  0.20000E+26
 610.0      1.05   1037.5      0.20000E+26  0.20000E+26    0.359495E-03   272.9   1.0009      0.11719E-04     20.099  0.20000E+26
 611.0      1.05   1037.4      0.20000E+26  0.20000E+26    0.356759E-03   273.5   1.0018      0.11752E-04     20.672  0.20000E+26
 612.0      1.06   1037.3      0.20000E+26  0.20000E+26    0.353991E-03   274.1   1.0026      0.11784E-04     21.251  0.20000E+26
 613.0      1.06   1037.1      0.20000E+26  0.20000E+26    0.351190E-03   274.7   1.0035      0.11815E-04     21.837  0.20000E+26
 614.0      1.06   1037.0      0.20000E+26  0.20000E+26    0.348358E-03   275.3   1.0043      0.11846E-04     22.430  0.20000E+26
 615.0      1.06   1036.9      0.20000E+26  0.20000E+26    0.345494E-03   275.8   1.0051      0.11877E-04     23.029  0.20000E+26
 616.0      1.07   1036.7      0.20000E+26  0.20000E+26    0.342600E-03   276.4   1.0058      0.11907E-04     23.635  0.20000E+26
 617.0      1.07   1036.5      0.20000E+26  0.20000E+26    0.339676E-03   276.9   1.0066      0.11936E-04     24.247  0.20000E+26
 618.0      1.07   1036.3      0.20000E+26  0.20000E+26    0.336723E-03   277.5   1.0073      0.11964E-04     24.865  0.20000E+26
 619.0      1.07   1036.1      0.20000E+26  0.20000E+26    0.333741E-03   278.0   1.0080      0.11991E-04     25.489  0.20000E+26
 620.0      1.08   1035.9      0.20000E+26  0.20000E+26    0.330731E-03   278.5   1.0087      0.12017E-04     26.119  0.20000E+26
 621.0      1.08   1035.6      0.20000E+26  0.20000E+26    0.327694E-03   279.0   1.0093      0.12042E-04     26.755  0.20000E+26
 622.0      1.08   1035.3      0.20000E+26  0.20000E+26    0.324631E-03   279.4   1.0099      0.12066E-04     27.396  0.20000E+26
 623.0      1.08   1035.0      0.20000E+26  0.20000E+26    0.321542E-03   279.8   1.0105      0.12088E-04     28.042  0.20000E+26
 624.0      1.08   1034.6      0.20000E+26  0.20000E+26    0.318429E-03   280.2   1.0110      0.12110E-04     28.694  0.20000E+26
 625.0      1.08   1034.2      0.20000E+26  0.20000E+26    0.315291E-03   280.6   1.0115      0.12130E-04     29.350  0.20000E+26
 626.0      1.09   1033.8      0.20000E+26  0.20000E+26    0.312131E-03   281.0   1.0119      0.12148E-04     30.012  0.20000E+26
 627.0      1.09   1033.4      0.20000E+26  0.20000E+26    0.308949E-03   281.3   1.0123      0.12166E-04     30.678  0.20000E+26
 628.0      1.09   1032.9      0.20000E+26  0.20000E+26    0.305745E-03   281.6   1.0126      0.12182E-04     31.348  0.20000E+26
 629.0      1.09   1032.4      0.20000E+26  0.20000E+26    0.302521E-03   281.9   1.0129      0.12196E-04     32.023  0.20000E+26
 630.0      1.09   1031.8      0.20000E+26  0.20000E+26    0.299278E-03   282.2   1.0132      0.12209E-04     32.701  0.20000E+26
 631.0      1.09   1031.3      0.20000E+26  0.20000E+26    0.296016E-03   282.4   1.0134      0.12221E-04     33.384  0.20000E+26
 632.0      1.09   1030.7      0.20000E+26  0.20000E+26    0.292738E-03   282.6   1.0136      0.12231E-04     34.070  0.20000E+26
 633.0      1.09   1030.0      0.20000E+26  0.20000E+26    0.289442E-03   282.8   1.0137      0.12240E-04     34.760  0.20000E+26
 634.0      1.09   1029.4      0.20000E+26  0.20000E+26    0.286132E-03   283.0   1.0138      0.12247E-04     35.452  0.20000E+26
 635.0      1.09   1028.7      0.20000E+26  0.20000E+26    0.282807E-03   283.1   1.0139      0.12253E-04     36.148  0.20000E+26
 636.0      1.09   1028.0      0.20000E+26  0.20000E+26    0.279470E-03   283.2   1.0139      0.12258E-04     36.847  0.20000E+26
 637.0      1.09   1027.2      0.20000E+26  0.20000E+26    0.276120E-03   283.3   1.0138      0.12261E-04     37.548  0.20000E+26
 638.0      1.09   1026.4      0.20000E+26  0.20000E+26    0.272759E-03   283.4   1.0138      0.12263E-04     38.251  0.20000E+26
 639.0      1.09   1025.6      0.20000E+26  0.20000E+26    0.269389E-03   283.4   1.0137      0.12263E-04     38.956  0.20000E+26
 640.0      1.09   1024.8      0.20000E+26  0.20000E+26    0.266010E-03   283.4   1.0135      0.12262E-04     39.664  0.20000E+26
 641.0      1.09   1023.9      0.20000E+26  0.20000E+26    0.262624E-03   283.4   1.0133      0.12260E-04     40.372  0.20000E+26
 642.0      1.09   1023.1      0.20000E+26  0.20000E+26    0.259231E-03   283.4   1.0131      0.12257E-04     41.082  0.20000E+26
 643.0      1.09   1022.1      0.20000E+26  0.20000E+26    0.255834E-03   283.3   1.0128      0.12252E-04     41.793  0.20000E+26
 644.0      1.09   1021.2      0.20000E+26  0.20000E+26    0.252433E-03   283.2   1.0125      0.12246E-04     42.505  0.20000E+26
 645.0      1.09   1020.2      0.20000E+26  0.20000E+26    0.249030E-03   283.1   1.0121      0.12239E-04     43.217  0.20000E+26
 646.0      1.09   1019.2      0.20000E+26  0.20000E+26    0.245625E-03   283.0   1.0118      0.12230E-04     43.930  0.20000E+26
 647.0      1.08   1018.2      0.20000E+26  0.20000E+26    0.242220E-03   282.9   1.0113      0.12220E-04     44.642  0.20000E+26
 648.0      1.08   1017.1      0.20000E+26  0.20000E+26    0.238817E-03   282.7   1.0108      0.12208E-04     45.354  0.20000E+26
 649.0      1.08   1016.1      0.20000E+26  0.20000E+26    0.235416E-03   282.5   1.0103      0.12195E-04     46.066  0.20000E+26
 650.0      1.08   1014.9      0.20000E+26  0.20000E+26    0.232020E-03   282.3   1.0097      0.12180E-04     46.777  0.20000E+26
 651.0      1.08   1013.8      0.20000E+26  0.20000E+26    0.228629E-03   282.0   1.0091      0.12164E-04     47.487  0.20000E+26
 652.0      1.07   1012.6      0.20000E+26  0.20000E+26    0.225245E-03   281.7   1.0084      0.12145E-04     48.195  0.20000E+26
 653.0      1.07   1011.3      0.20000E+26  0.20000E+26    0.221868E-03   281.4   1.0077      0.12125E-04     48.901  0.20000E+26
 654.0      1.07   1010.0      0.20000E+26  0.20000E+26    0.218501E-03   281.0   1.0069      0.12103E-04     49.606  0.20000E+26
 655.0      1.07   1008.7      0.20000E+26  0.20000E+26    0.215145E-03   280.6   1.0061      0.12079E-04     50.308  0.20000E+26
 656.0      1.06   1007.4      0.20000E+26  0.20000E+26    0.211801E-03   280.2   1.0052      0.12053E-04     51.008  0.20000E+26
 657.0      1.06   1006.0      0.20000E+26  0.20000E+26    0.208471E-03   279.7   1.0042      0.12025E-04     51.705  0.20000E+26
 658.0      1.06   1004.5      0.20000E+26  0.20000E+26    0.205156E-03   279.2   1.0032      0.11996E-04     52.399  0.20000E+26
 659.0      1.05   1003.1      0.20000E+26  0.20000E+26    0.201857E-03   278.7   1.0021      0.11964E-04     53.089  0.20000E+26
 660.0      1.05   1001.6      0.20000E+26  0.20000E+26    0.198576E-03   278.1   1.0010      0.11931E-04     53.776  0.20000E+26
 661.0      1.05   1000.0      0.20000E+26  0.20000E+26    0.195314E-03   277.5  0.99986      0.11896E-04     54.459  0.20000E+26
 662.0      1.04   998.41      0.20000E+26  0.20000E+26    0.192073E-03   276.9  0.99863      0.11859E-04     55.137  0.20000E+26
 663.0      1.04   996.75      0.20000E+26  0.20000E+26    0.188854E-03   276.2  0.99732      0.11819E-04     55.811  0.20000E+26
 664.0      1.03   995.04      0.20000E+26  0.20000E+26    0.185658E-03   275.5  0.99594      0.11777E-04     56.479  0.20000E+26
 665.0      1.03   993.26      0.20000E+26  0.20000E+26    0.182487E-03   274.7  0.99448      0.11391E-04     57.143  0.20000E+26
 666.0      1.02   991.44      0.20000E+26  0.20000E+26    0.179343E-03   273.9  0.99295      0.10786E-04     57.801  0.20000E+26
 667.0      1.02   989.56      0.20000E+26  0.20000E+26    0.176226E-03   273.0  0.99135      0.10112E-04     58.453  0.20000E+26
 668.0      1.01   987.67      0.20000E+26  0.20000E+26    0.173138E-03   272.1  0.98973      0.93746E-05     59.100  0.20000E+26
 669.0      1.01   985.82      0.20000E+26  0.20000E+26    0.170081E-03   271.3  0.98817      0.86023E-05     59.739  0.20000E+26
 670.0      1.00   984.08      0.20000E+26  0.20000E+26    0.167056E-03   270.5  0.98675      0.78316E-05     60.372  0.20000E+26
 671.0      1.00   982.50      0.20000E+26  0.20000E+26    0.164064E-03   269.9  0.98555      0.71106E-05     60.999  0.20000E+26
 672.0      1.00   981.14      0.20000E+26  0.20000E+26    0.161106E-03   269.4  0.98463      0.64971E-05     61.618  0.20000E+26
 673.0      0.99   980.00      0.20000E+26  0.20000E+26    0.158185E-03   269.1  0.98400      0.60464E-05     62.229  0.20000E+26
 674.0      0.99   979.11      0.20000E+26  0.20000E+26    0.155301E-03   269.0  0.98369      0.58091E-05     62.832  0.20000E+26
 675.0      0.99   978.46      0.20000E+26  0.20000E+26    0.152456E-03   269.1  0.98370      0.58144E-05     63.428  0.20000E+26
 676.0      0.99   978.05      0.20000E+26  0.20000E+26    0.149651E-03   269.4  0.98401      0.60544E-05     64.015  0.20000E+26
 677.0      1.00   977.85      0.20000E+26  0.20000E+26    0.146888E-03   269.8  0.98460      0.64881E-05     64.593  0.20000E+26
 678.0      1.00   977.85      0.20000E+26  0.20000E+26    0.144167E-03   270.5  0.98545      0.70583E-05     65.162  0.20000E+26
 679.0      1.00   978.00      0.20000E+26  0.20000E+26    0.141491E-03   271.2  0.98650      0.77049E-05     65.723  0.20000E+26
 680.0      1.01   978.25      0.20000E+26  0.20000E+26    0.138860E-03   272.0  0.98768      0.83766E-05     66.273  0.20000E+26
 681.0      1.01   978.54      0.20000E+26  0.20000E+26    0.136275E-03   272.9  0.98894      0.90315E-05     66.814  0.20000E+26
 682.0      1.01   978.83      0.20000E+26  0.20000E+26    0.133739E-03   273.7  0.99018      0.96351E-05     67.345  0.20000E+26
 683.0      1.02   979.06      0.20000E+26  0.20000E+26    0.131251E-03   274.5  0.99136      0.10172E-04     67.865  0.20000E+26
 684.0      1.02   979.21      0.20000E+26  0.20000E+26    0.128814E-03   275.3  0.99244      0.10639E-04     68.375  0.20000E+26
 685.0      1.02   979.25      0.20000E+26  0.20000E+26    0.126429E-03   276.0  0.99337      0.11030E-04     68.875  0.20000E+26
 686.0      1.03   979.17      0.20000E+26  0.20000E+26    0.124096E-03   276.5  0.99415      0.11342E-04     69.363  0.20000E+26
 687.0      1.03   978.95      0.20000E+26  0.20000E+26    0.121818E-03   277.0  0.99472      0.11571E-04     69.840  0.20000E+26
 688.0      1.03   978.57      0.20000E+26  0.20000E+26    0.119594E-03   277.3  0.99510      0.11718E-04     70.305  0.20000E+26
 689.0      1.03   978.05      0.20000E+26  0.20000E+26    0.117427E-03   277.5  0.99527      0.11787E-04     70.759  0.20000E+26
 690.0      1.03   977.36      0.20000E+26  0.20000E+26    0.115317E-03   277.6  0.99521      0.11769E-04     71.200  0.20000E+26
 691.0      1.03   976.49      0.20000E+26  0.20000E+26    0.113265E-03   277.5  0.99491      0.11660E-04     71.630  0.20000E+26
 692.0      1.03   975.44      0.20000E+26  0.20000E+26    0.111272E-03   277.2  0.99436      0.11450E-04     72.047  0.20000E+26
 693.0      1.03   974.19      0.20000E+26  0.20000E+26    0.109340E-03   276.9  0.99355      0.11132E-04     72.451  0.20000E+26
 694.0      1.02   972.76      0.20000E+26  0.20000E+26    0.107469E-03   276.3  0.99249      0.10696E-04     72.842  0.20000E+26
 695.0      1.02   971.14      0.20000E+26  0.20000E+26    0.105661E-03   275.6  0.99117      0.10126E-04     73.221  0.20000E+26
 696.0      1.01   969.34      0.20000E+26  0.20000E+26    0.103916E-03   274.7  0.98960      0.94037E-05     73.586  0.20000E+26
 697.0      1.01   967.38      0.20000E+26  0.20000E+26    0.102235E-03   273.7  0.98782      0.84953E-05     73.938  0.20000E+26
 698.0      1.00   965.29      0.20000E+26  0.20000E+26    0.100618E-03   272.6  0.98587      0.73733E-05     74.276  0.20000E+26
 699.0      0.99   963.17      0.20000E+26  0.20000E+26    0.990682E-04   271.5  0.98388      0.60049E-05     74.601  0.20000E+26
 700.0      0.99   961.10      0.20000E+26  0.20000E+26    0.975845E-04   270.4  0.98196      0.42744E-05     74.911  0.20000E+26
 701.0      0.98   959.15      0.20000E+26  0.20000E+26    0.961683E-04   269.4  0.98021      0.13917E-05     75.208  0.20000E+26
 702.0      0.98   957.39      0.20000E+26  0.20000E+26    0.948201E-04   268.6  0.97870       0.0000         75.490  0.20000E+26
 703.0      0.97   955.86      0.20000E+26  0.20000E+26    0.935408E-04   267.9  0.97748       0.0000         75.757  0.20000E+26
 704.0      0.97   954.58      0.20000E+26  0.20000E+26    0.923309E-04   267.4  0.97659       0.0000         76.011  0.20000E+26
 705.0      0.97   953.56      0.20000E+26  0.20000E+26    0.911912E-04   267.2  0.97604       0.0000         76.249  0.20000E+26
 706.0      0.97   952.80      0.20000E+26  0.20000E+26    0.901222E-04   267.1  0.97583       0.0000         76.473  0.20000E+26
 707.0      0.97   952.28      0.20000E+26  0.20000E+26    0.891244E-04   267.3  0.97592       0.0000         76.682  0.20000E+26
 708.0      0.97   951.95      0.20000E+26  0.20000E+26    0.881984E-04   267.6  0.97625       0.0000         76.875  0.20000E+26
 709.0      0.97   951.76      0.20000E+26  0.20000E+26    0.873447E-04   268.0  0.97677       0.0000         77.054  0.20000E+26
 710.0      0.97   951.64      0.20000E+26  0.20000E+26    0.865638E-04   268.5  0.97738       0.0000         77.218  0.20000E+26
 711.0      0.97   951.53      0.20000E+26  0.20000E+26    0.858559E-04   268.9  0.97800       0.0000         77.366  0.20000E+26
 712.0      0.98   951.36      0.20000E+26  0.20000E+26    0.852216E-04   269.3  0.97854       0.0000         77.498  0.20000E+26
 713.0      0.98   951.08      0.20000E+26  0.20000E+26    0.846611E-04   269.7  0.97895       0.0000         77.616  0.20000E+26
 714.0      0.98   950.66      0.20000E+26  0.20000E+26    0.841747E-04   269.9  0.97916       0.0000         77.718  0.20000E+26
 715.0      0.98   950.05      0.20000E+26  0.20000E+26    0.837627E-04   270.0  0.97912       0.0000         77.804  0.20000E+26
 716.0      0.98   949.22      0.20000E+26  0.20000E+26    0.834254E-04   269.9  0.97880       0.0000         77.874  0.20000E+26
 717.0      0.97   948.11      0.20000E+26  0.20000E+26    0.831628E-04   269.6  0.97816       0.0000         77.929  0.20000E+26
 718.0      0.97   946.68      0.20000E+26  0.20000E+26    0.829751E-04   269.1  0.97720       0.0000         77.969  0.20000E+26
 719.0      0.97   944.97      0.20000E+26  0.20000E+26    0.828625E-04   268.4  0.97594       0.0000         77.992  0.20000E+26
 720.0      0.96   942.98      0.20000E+26  0.20000E+26    0.828249E-04   267.6  0.97442       0.0000         78.000  0.20000E+26
 721.0      0.96   940.76      0.20000E+26  0.20000E+26    0.828624E-04   266.6  0.97268       0.0000         77.992  0.20000E+26
 722.0      0.95   938.35      0.20000E+26  0.20000E+26    0.829751E-04   265.5  0.97078       0.0000         77.969  0.20000E+26
 723.0      0.94   935.80      0.20000E+26  0.20000E+26    0.831627E-04   264.5  0.96880       0.0000         77.929  0.20000E+26
 724.0      0.94   933.19      0.20000E+26  0.20000E+26    0.834253E-04   263.4  0.96683       0.0000         77.874  0.20000E+26
 725.0      0.93   930.59      0.20000E+26  0.20000E+26    0.837626E-04   262.3  0.96495       0.0000         77.804  0.20000E+26
 726.0      0.92   928.04      0.20000E+26  0.20000E+26    0.841746E-04   261.4  0.96322       0.0000         77.718  0.20000E+26
 727.0      0.92   925.61      0.20000E+26  0.20000E+26    0.846609E-04   260.6  0.96169       0.0000         77.616  0.20000E+26
 728.0      0.91   923.32      0.20000E+26  0.20000E+26    0.852214E-04   260.0  0.96040       0.0000         77.498  0.20000E+26
 729.0      0.91   921.18      0.20000E+26  0.20000E+26    0.858557E-04   259.5  0.95934       0.0000         77.366  0.20000E+26
 730.0      0.91   918.42      0.20000E+26  0.20000E+26    0.865636E-04   259.4  0.95860       0.0000         77.218  0.20000E+26
 731.0      0.91   914.59      0.20000E+26  0.20000E+26    0.873445E-04   259.5  0.95802       0.0000         77.054  0.20000E+26
 732.0      0.90   910.18      0.20000E+26  0.20000E+26    0.881982E-04   259.7  0.95738       0.0000         76.875  0.20000E+26
 733.0      0.90   905.24      0.20000E+26  0.20000E+26    0.891241E-04   259.9  0.95668       0.0000         76.682  0.20000E+26
 734.0      0.90   899.78      0.20000E+26  0.20000E+26    0.901219E-04   260.1  0.95592       0.0000         76.473  0.20000E+26
 735.0      0.90   893.82      0.20000E+26  0.20000E+26    0.911909E-04   260.4  0.95510       0.0000         76.249  0.20000E+26
 736.0      0.89   887.40      0.20000E+26  0.20000E+26    0.923306E-04   260.7  0.95420       0.0000         76.011  0.20000E+26
 737.0      0.89   880.52      0.20000E+26  0.20000E+26    0.935404E-04   261.0  0.95323       0.0000         75.757  0.20000E+26
 738.0      0.89   873.23      0.20000E+26  0.20000E+26    0.948197E-04   261.4  0.95220       0.0000         75.490  0.20000E+26
 739.0      0.88   865.54      0.20000E+26  0.20000E+26    0.961679E-04   261.7  0.95111       0.0000         75.208  0.20000E+26
 740.0      0.88   857.53      0.20000E+26  0.20000E+26    0.975841E-04   262.2  0.95001       0.0000         74.911  0.20000E+26
 741.0      0.88   849.20      0.20000E+26  0.20000E+26    0.990678E-04   262.6  0.94889       0.0000         74.601  0.20000E+26
 742.0      0.87   840.57      0.20000E+26  0.20000E+26    0.100618E-03   263.1  0.94775       0.0000         74.276  0.20000E+26
 743.0      0.87   831.67      0.20000E+26  0.20000E+26    0.102234E-03   263.7  0.94661       0.0000         73.938  0.20000E+26
 744.0      0.86   822.55      0.20000E+26  0.20000E+26    0.103915E-03   264.3  0.94546       0.0000         73.586  0.20000E+26
 745.0      0.86   813.22      0.20000E+26  0.20000E+26    0.105660E-03   265.0  0.94431       0.0000         73.221  0.20000E+26
 746.0      0.86   803.71      0.20000E+26  0.20000E+26    0.107469E-03   265.7  0.94317       0.0000         72.843  0.20000E+26
 747.0      0.85   794.08      0.20000E+26  0.20000E+26    0.109340E-03   266.4  0.94202       0.0000         72.451  0.20000E+26
 748.0      0.85   784.36      0.20000E+26  0.20000E+26    0.111272E-03   267.2  0.94088       0.0000         72.047  0.20000E+26
 749.0      0.85   774.58      0.20000E+26  0.20000E+26    0.113264E-03   268.0  0.93973       0.0000         71.630  0.20000E+26
 750.0      0.84   764.76      0.20000E+26  0.20000E+26    0.115316E-03   268.9  0.93858       0.0000         71.200  0.20000E+26
 751.0      0.84   754.93      0.20000E+26  0.20000E+26    0.117426E-03   269.7  0.93743       0.0000         70.759  0.20000E+26
 752.0      0.83   745.12      0.20000E+26  0.20000E+26    0.119594E-03   270.6  0.93628       0.0000         70.305  0.20000E+26
 753.0      0.83   735.33      0.20000E+26  0.20000E+26    0.121817E-03   271.5  0.93513       0.0000         69.840  0.20000E+26
 754.0      0.83   725.60      0.20000E+26  0.20000E+26    0.124096E-03   272.4  0.93398       0.0000         69.363  0.20000E+26
 755.0      0.82   715.93      0.20000E+26  0.20000E+26    0.126428E-03   273.4  0.93283       0.0000         68.875  0.20000E+26
 756.0      0.82   706.38      0.20000E+26  0.20000E+26    0.128814E-03   274.3  0.93172       0.0000         68.376  0.20000E+26
 757.0      0.82   696.98      0.20000E+26  0.20000E+26    0.131251E-03   275.3  0.93067       0.0000         67.866  0.20000E+26
 758.0      0.81   687.75      0.20000E+26  0.20000E+26    0.133738E-03   276.4  0.92969       0.0000         67.345  0.20000E+26
 759.0      0.81   678.71      0.20000E+26  0.20000E+26    0.136275E-03   277.5  0.92876       0.0000         66.814  0.20000E+26
 760.0      0.81   669.86      0.20000E+26  0.20000E+26    0.138859E-03   278.6  0.92789       0.0000         66.273  0.20000E+26
 761.0      0.80   661.11      0.20000E+26  0.20000E+26    0.141490E-03   279.8  0.92704       0.0000         65.723  0.20000E+26
 762.0      0.80   652.57      0.20000E+26  0.20000E+26    0.144167E-03   281.0  0.92624       0.0000         65.163  0.20000E+26
 763.0      0.80   644.25      0.20000E+26  0.20000E+26    0.146887E-03   282.2  0.92548       0.0000         64.593  0.20000E+26
 764.0      0.80   636.14      0.20000E+26  0.20000E+26    0.149651E-03   283.4  0.92476       0.0000         64.015  0.20000E+26
 765.0      0.79   628.25      0.20000E+26  0.20000E+26    0.152455E-03   284.6  0.92409       0.0000         63.428  0.20000E+26
 766.0      0.79   620.57      0.20000E+26  0.20000E+26    0.155300E-03   285.9  0.92344       0.0000         62.833  0.20000E+26
 767.0      0.79   613.10      0.20000E+26  0.20000E+26    0.158184E-03   287.1  0.92283       0.0000         62.229  0.20000E+26
 768.0      0.79   605.85      0.20000E+26  0.20000E+26    0.161105E-03   288.3  0.92224       0.0000         61.618  0.20000E+26
 769.0      0.79   598.81      0.20000E+26  0.20000E+26    0.164063E-03   289.6  0.92168       0.0000         60.999  0.20000E+26
 770.0      0.78   591.97      0.20000E+26  0.20000E+26    0.167055E-03   290.8  0.92114       0.0000         60.373  0.20000E+26
 771.0      0.78   585.33      0.20000E+26  0.20000E+26    0.170080E-03   292.0  0.92062       0.0000         59.740  0.20000E+26
 772.0      0.78   578.89      0.20000E+26  0.20000E+26    0.173137E-03   293.3  0.92012       0.0000         59.100  0.20000E+26
 773.0      0.78   572.66      0.20000E+26  0.20000E+26    0.176225E-03   294.5  0.91965       0.0000         58.454  0.20000E+26
 774.0      0.78   566.66      0.20000E+26  0.20000E+26    0.179342E-03   295.7  0.91923       0.0000         57.801  0.20000E+26
 775.0      0.78   560.88      0.20000E+26  0.20000E+26    0.182486E-03   296.9  0.91887       0.0000         57.143  0.20000E+26
 776.0      0.78   555.32      0.20000E+26  0.20000E+26    0.185657E-03   298.2  0.91855       0.0000         56.480  0.20000E+26
 777.0      0.77   549.97      0.20000E+26  0.20000E+26    0.188853E-03   299.4  0.91828       0.0000         55.811  0.20000E+26
 778.0      0.77   544.82      0.20000E+26  0.20000E+26    0.192072E-03   300.7  0.91804       0.0000         55.137  0.20000E+26
 779.0      0.77   539.86      0.20000E+26  0.20000E+26    0.195313E-03   302.0  0.91785       0.0000         54.459  0.20000E+26
 780.0      0.77   535.09      0.20000E+26  0.20000E+26    0.198575E-03   303.2  0.91769       0.0000         53.776  0.20000E+26
 781.0      0.77   530.50      0.20000E+26  0.20000E+26    0.201856E-03   304.5  0.91757       0.0000         53.090  0.20000E+26
 782.0      0.77   526.08      0.20000E+26  0.20000E+26    0.205155E-03   305.7  0.91748       0.0000         52.399  0.20000E+26
 783.0      0.77   521.83      0.20000E+26  0.20000E+26    0.208470E-03   307.0  0.91742       0.0000         51.705  0.20000E+26
 784.0      0.77   517.75      0.20000E+26  0.20000E+26    0.211800E-03   308.2  0.91739       0.0000         51.008  0.20000E+26
 785.0      0.77   513.81      0.20000E+26  0.20000E+26    0.215144E-03   309.5  0.91738       0.0000         50.309  0.20000E+26
 786.0      0.77   510.03      0.20000E+26  0.20000E+26    0.218500E-03   310.7  0.91741       0.0000         49.606  0.20000E+26
 787.0      0.77   506.38      0.20000E+26  0.20000E+26    0.221867E-03   312.0  0.91745       0.0000         48.902  0.20000E+26
 788.0      0.77   502.87      0.20000E+26  0.20000E+26    0.225244E-03   313.2  0.91753       0.0000         48.195  0.20000E+26
 789.0      0.77   499.50      0.20000E+26  0.20000E+26    0.228628E-03   314.4  0.91762       0.0000         47.487  0.20000E+26
 790.0      0.77   496.25      0.20000E+26  0.20000E+26    0.232019E-03   315.6  0.91774       0.0000         46.777  0.20000E+26
 791.0      0.77   493.12      0.20000E+26  0.20000E+26    0.235416E-03   316.8  0.91788       0.0000         46.066  0.20000E+26
 792.0      0.77   490.11      0.20000E+26  0.20000E+26    0.238816E-03   318.0  0.91804       0.0000         45.355  0.20000E+26
 793.0      0.77   487.21      0.20000E+26  0.20000E+26    0.242219E-03   319.2  0.91823       0.0000         44.642  0.20000E+26
 794.0      0.77   484.41      0.20000E+26  0.20000E+26    0.245624E-03   320.4  0.91843       0.0000         43.930  0.20000E+26
 795.0      0.78   481.72      0.20000E+26  0.20000E+26    0.249029E-03   321.6  0.91865       0.0000         43.217  0.20000E+26
 796.0      0.78   479.13      0.20000E+26  0.20000E+26    0.252432E-03   322.8  0.91889       0.0000         42.505  0.20000E+26
 797.0      0.78   476.63      0.20000E+26  0.20000E+26    0.255833E-03   324.0  0.91915       0.0000         41.793  0.20000E+26
 798.0      0.78   474.23      0.20000E+26  0.20000E+26    0.259231E-03   325.2  0.91943       0.0000         41.082  0.20000E+26
 799.0      0.78   471.91      0.20000E+26  0.20000E+26    0.262623E-03   326.4  0.91973       0.0000         40.372  0.20000E+26
 800.0      0.78   469.66      0.20000E+26  0.20000E+26    0.266009E-03   327.6  0.92004       0.0000         39.664  0.20000E+26
 801.0      0.78   467.49      0.20000E+26  0.20000E+26    0.269388E-03   328.7  0.92037       0.0000         38.957  0.20000E+26
 802.0      0.78   465.40      0.20000E+26  0.20000E+26    0.272758E-03   329.9  0.92072       0.0000         38.251  0.20000E+26
 803.0      0.78   463.39      0.20000E+26  0.20000E+26    0.276119E-03   331.1  0.92109       0.0000         37.548  0.20000E+26
 804.0      0.78   461.45      0.20000E+26  0.20000E+26    0.279469E-03   332.2  0.92147       0.0000         36.847  0.20000E+26
 805.0      0.79   459.58      0.20000E+26  0.20000E+26    0.282807E-03   333.4  0.92188       0.0000         36.148  0.20000E+26
 806.0      0.79   457.77      0.20000E+26  0.20000E+26    0.286131E-03   334.6  0.92229       0.0000         35.453  0.20000E+26
 807.0      0.79   456.03      0.20000E+26  0.20000E+26    0.289442E-03   335.8  0.92273       0.0000         34.760  0.20000E+26
 808.0      0.79   454.34      0.20000E+26  0.20000E+26    0.292737E-03   336.9  0.92319       0.0000         34.070  0.20000E+26
 809.0      0.79   452.71      0.20000E+26  0.20000E+26    0.296016E-03   338.1  0.92366       0.0000         33.384  0.20000E+26
 810.0      0.79   451.13      0.20000E+26  0.20000E+26    0.299277E-03   339.3  0.92415       0.0000         32.702  0.20000E+26
 811.0      0.80   449.61      0.20000E+26  0.20000E+26    0.302520E-03   340.5  0.92466       0.0000         32.023  0.20000E+26
 812.0      0.80   448.13      0.20000E+26  0.20000E+26    0.305744E-03   341.7  0.92519       0.0000         31.348  0.20000E+26
 813.0      0.80   446.71      0.20000E+26  0.20000E+26    0.308948E-03   342.9  0.92574       0.0000         30.678  0.20000E+26
 814.0      0.80   445.33      0.20000E+26  0.20000E+26    0.312130E-03   344.1  0.92630       0.0000         30.012  0.20000E+26
 815.0      0.80   444.00      0.20000E+26  0.20000E+26    0.315291E-03   345.3  0.92688       0.0000         29.350  0.20000E+26
 816.0      0.80   442.72      0.20000E+26  0.20000E+26    0.318428E-03   346.5  0.92748       0.0000         28.694  0.20000E+26
 817.0      0.81   441.48      0.20000E+26  0.20000E+26    0.321541E-03   347.8  0.92809       0.0000         28.042  0.20000E+26
 818.0      0.81   440.27      0.20000E+26  0.20000E+26    0.324630E-03   349.0  0.92873       0.0000         27.396  0.20000E+26
 819.0      0.81   439.11      0.20000E+26  0.20000E+26    0.327693E-03   350.2  0.92938       0.0000         26.755  0.20000E+26
 820.0      0.81   437.99      0.20000E+26  0.20000E+26    0.330730E-03   351.5  0.93005       0.0000         26.119  0.20000E+26
 821.0      0.82   436.91      0.20000E+26  0.20000E+26    0.333740E-03   352.7  0.93073       0.0000         25.489  0.20000E+26
 822.0      0.82   435.86      0.20000E+26  0.20000E+26    0.336722E-03   354.0  0.93144       0.0000         24.865  0.20000E+26
 823.0      0.82   434.85      0.20000E+26  0.20000E+26    0.339675E-03   355.3  0.93216       0.0000         24.247  0.20000E+26
 824.0      0.82   433.87      0.20000E+26  0.20000E+26    0.342599E-03   356.5  0.93290       0.0000         23.635  0.20000E+26
 825.0      0.83   432.93      0.20000E+26  0.20000E+26    0.345494E-03   357.8  0.93365       0.0000         23.030  0.20000E+26
 826.0      0.83   432.02      0.20000E+26  0.20000E+26    0.348357E-03   359.1  0.93442       0.0000         22.430  0.20000E+26
 827.0      0.83   431.14      0.20000E+26  0.20000E+26    0.351190E-03   360.4  0.93521       0.0000         21.837  0.20000E+26
 828.0      0.83   430.29      0.20000E+26  0.20000E+26    0.353990E-03   361.7  0.93602       0.0000         21.251  0.20000E+26
 829.0      0.84   429.47      0.20000E+26  0.20000E+26    0.356759E-03   363.0  0.93684       0.0000         20.672  0.20000E+26
 830.0      0.84   428.68      0.20000E+26  0.20000E+26    0.359494E-03   364.4  0.93768       0.0000         20.100  0.20000E+26
 831.0      0.84   427.92      0.20000E+26  0.20000E+26    0.362196E-03   365.7  0.93854       0.0000         19.534  0.20000E+26
 832.0      0.84   427.19      0.20000E+26  0.20000E+26    0.364864E-03   367.1  0.93942       0.0000         18.976  0.20000E+26
 833.0      0.85   426.48      0.20000E+26  0.20000E+26    0.367497E-03   368.4  0.94031       0.0000         18.425  0.20000E+26
 834.0      0.85   425.80      0.20000E+26  0.20000E+26    0.370096E-03   369.8  0.94121       0.0000         17.881  0.20000E+26
 835.0      0.85   425.14      0.20000E+26  0.20000E+26    0.372659E-03   371.1  0.94214       0.0000         17.344  0.20000E+26
 836.0      0.86   424.51      0.20000E+26  0.20000E+26    0.375187E-03   372.5  0.94308       0.0000         16.815  0.20000E+26
 837.0      0.86   423.90      0.20000E+26  0.20000E+26    0.377678E-03   373.9  0.94404       0.0000         16.294  0.20000E+26
 838.0      0.86   423.31      0.20000E+26  0.20000E+26    0.380133E-03   375.3  0.94501       0.0000         15.780  0.20000E+26
 839.0      0.87   422.75      0.20000E+26  0.20000E+26    0.382550E-03   376.7  0.94600       0.0000         15.274  0.20000E+26
 840.0      0.87   422.21      0.20000E+26  0.20000E+26    0.384931E-03   378.2  0.94701       0.0000         14.776  0.20000E+26
 841.0      0.87   421.69      0.20000E+26  0.20000E+26    0.387274E-03   379.6  0.94803       0.0000         14.286  0.20000E+26
 842.0      0.88   421.19      0.20000E+26  0.20000E+26    0.389579E-03   381.0  0.94907       0.0000         13.803  0.20000E+26
 843.0      0.88   420.72      0.20000E+26  0.20000E+26    0.391846E-03   382.5  0.95012       0.0000         13.329  0.20000E+26
 844.0      0.88   420.26      0.20000E+26  0.20000E+26    0.394075E-03   383.9  0.95119       0.0000         12.863  0.20000E+26
 845.0      0.89   419.82      0.20000E+26  0.20000E+26    0.396265E-03   385.4  0.95227       0.0000         12.404  0.20000E+26
 846.0      0.89   419.40      0.20000E+26  0.20000E+26    0.398416E-03   386.9  0.95337       0.0000         11.954  0.20000E+26
 847.0      0.89   419.00      0.20000E+26  0.20000E+26    0.400529E-03   388.4  0.95449       0.0000         11.512  0.20000E+26
 848.0      0.90   418.61      0.20000E+26  0.20000E+26    0.402602E-03   389.9  0.95562       0.0000         11.078  0.20000E+26
 849.0      0.90   418.25      0.20000E+26  0.20000E+26    0.404635E-03   391.4  0.95676       0.0000         10.653  0.20000E+26
 850.0      0.91   417.90      0.20000E+26  0.20000E+26    0.406629E-03   392.9  0.95792       0.0000         10.235  0.20000E+26
 851.0      0.91   417.56      0.20000E+26  0.20000E+26    0.408584E-03   394.4  0.95909       0.0000          9.826  0.20000E+26
 852.0      0.91   417.25      0.20000E+26  0.20000E+26    0.410498E-03   395.9  0.96028       0.0000          9.426  0.20000E+26
 853.0      0.92   416.95      0.20000E+26  0.20000E+26    0.412373E-03   397.5  0.96148       0.0000          9.033  0.20000E+26
 854.0      0.92   416.66      0.20000E+26  0.20000E+26    0.414208E-03   399.0  0.96270       0.0000          8.649  0.20000E+26
 855.0      0.93   416.39      0.20000E+26  0.20000E+26    0.416003E-03   400.6  0.96393       0.0000          8.274  0.20000E+26
 856.0      0.93   416.14      0.20000E+26  0.20000E+26    0.417757E-03   402.2  0.96518       0.0000          7.906  0.20000E+26
 857.0      0.93   415.90      0.20000E+26  0.20000E+26    0.419471E-03   403.7  0.96644       0.0000          7.548  0.20000E+26
 858.0      0.94   415.68      0.20000E+26  0.20000E+26    0.421145E-03   405.3  0.96771       0.0000          7.197  0.20000E+26
 859.0      0.94   415.46      0.20000E+26  0.20000E+26    0.422779E-03   406.9  0.96899       0.0000          6.855  0.20000E+26
 860.0      0.95   415.27      0.20000E+26  0.20000E+26    0.424373E-03   408.5  0.97029       0.0000          6.522  0.20000E+26
 861.0      0.95   415.08      0.20000E+26  0.20000E+26    0.425926E-03   410.1  0.97160       0.0000          6.197  0.20000E+26
 862.0      0.96   414.91      0.20000E+26  0.20000E+26    0.427439E-03   411.7  0.97292       0.0000          5.880  0.20000E+26
 863.0      0.96   414.75      0.20000E+26  0.20000E+26    0.428912E-03   413.3  0.97426       0.0000          5.572  0.20000E+26
 864.0      0.97   414.61      0.20000E+26  0.20000E+26    0.430344E-03   414.9  0.97561       0.0000          5.272  0.20000E+26
 865.0      0.97   414.47      0.20000E+26  0.20000E+26    0.431736E-03   416.6  0.97697       0.0000          4.981  0.20000E+26
 866.0      0.97   414.35      0.20000E+26  0.20000E+26    0.433088E-03   418.2  0.97834       0.0000          4.698  0.20000E+26
 867.0      0.98   414.24      0.20000E+26  0.20000E+26    0.434400E-03   419.8  0.97972       0.0000          4.424  0.20000E+26
 868.0      0.98   414.14      0.20000E+26  0.20000E+26    0.435671E-03   421.5  0.98111      0.50037E-05      4.157  0.20000E+26
 869.0      0.99   414.06      0.20000E+26  0.20000E+26    0.436903E-03   423.1  0.98251      0.75300E-05      3.900  0.20000E+26
 870.0      0.99   413.98      0.20000E+26  0.20000E+26    0.438094E-03   424.8  0.98391      0.94030E-05      3.650  0.20000E+26
 871.0      1.00   413.91      0.20000E+26  0.20000E+26    0.439245E-03   426.4  0.98531      0.10951E-04      3.409  0.20000E+26
 872.0      1.00   413.86      0.20000E+26  0.20000E+26    0.440357E-03   428.0  0.98669      0.12289E-04      3.177  0.20000E+26
 873.0      1.01   413.81      0.20000E+26  0.20000E+26    0.441428E-03   429.6  0.98804      0.13475E-04      2.953  0.20000E+26
 874.0      1.01   413.76      0.20000E+26  0.20000E+26    0.442460E-03   431.1  0.98937      0.14543E-04      2.737  0.20000E+26
 875.0      1.02   413.73      0.20000E+26  0.20000E+26    0.443452E-03   432.6  0.99067      0.15514E-04      2.529  0.20000E+26
 876.0      1.02   413.71      0.20000E+26  0.20000E+26    0.444404E-03   434.0  0.99193      0.16403E-04      2.330  0.20000E+26
 877.0      1.02   413.69      0.20000E+26  0.20000E+26    0.445317E-03   435.4  0.99315      0.17222E-04      2.139  0.20000E+26
 878.0      1.03   413.68      0.20000E+26  0.20000E+26    0.446191E-03   436.8  0.99434      0.17979E-04      1.956  0.20000E+26
 879.0      1.03   413.68      0.20000E+26  0.20000E+26    0.447024E-03   438.1  0.99549      0.18681E-04      1.781  0.20000E+26
 880.0      1.04   413.68      0.20000E+26  0.20000E+26    0.447819E-03   439.3  0.99659      0.18914E-04      1.615  0.20000E+26
 881.0      1.04   413.69      0.20000E+26  0.20000E+26    0.448574E-03   440.5  0.99765      0.18979E-04      1.457  0.20000E+26
 882.0      1.04   413.71      0.20000E+26  0.20000E+26    0.449290E-03   441.7  0.99868      0.19041E-04      1.307  0.20000E+26
 883.0      1.05   413.74      0.20000E+26  0.20000E+26    0.449967E-03   442.8  0.99966      0.19101E-04      1.166  0.20000E+26
 884.0      1.05   413.77      0.20000E+26  0.20000E+26    0.450604E-03   443.8   1.0006      0.19157E-04      1.032  0.20000E+26
 885.0      1.05   413.82      0.20000E+26  0.20000E+26    0.451203E-03   444.8   1.0015      0.19211E-04      0.907  0.20000E+26
 886.0      1.05   413.87      0.20000E+26  0.20000E+26    0.451763E-03   445.8   1.0024      0.19263E-04      0.790  0.20000E+26
 887.0      1.06   413.93      0.20000E+26  0.20000E+26    0.452283E-03   446.6   1.0032      0.19311E-04      0.681  0.20000E+26
 888.0      1.06   413.99      0.20000E+26  0.20000E+26    0.452765E-03   447.5   1.0040      0.19358E-04      0.580  0.20000E+26
 889.0      1.06   414.07      0.20000E+26  0.20000E+26    0.453209E-03   448.3   1.0047      0.19402E-04      0.487  0.20000E+26
 890.0      1.06   414.15      0.20000E+26  0.20000E+26    0.453613E-03   449.1   1.0054      0.19444E-04      0.403  0.20000E+26
 891.0      1.07   414.24      0.20000E+26  0.20000E+26    0.453979E-03   449.8   1.0061      0.19483E-04      0.326  0.20000E+26
 892.0      1.07   414.34      0.20000E+26  0.20000E+26    0.454306E-03   450.4   1.0068      0.19520E-04      0.258  0.20000E+26
 893.0      1.07   414.44      0.20000E+26  0.20000E+26    0.454595E-03   451.1   1.0074      0.19555E-04      0.197  0.20000E+26
 894.0      1.07   414.55      0.20000E+26  0.20000E+26    0.454845E-03   451.7   1.0080      0.19588E-04      0.145  0.20000E+26
 895.0      1.08   414.68      0.20000E+26  0.20000E+26    0.455056E-03   452.2   1.0085      0.19619E-04      0.101  0.20000E+26
 896.0      1.08   414.81      0.20000E+26  0.20000E+26    0.455229E-03   452.7   1.0090      0.19648E-04      0.064  0.20000E+26
 897.0      1.08   414.95      0.20000E+26  0.20000E+26    0.455364E-03   453.2   1.0095      0.19676E-04      0.036  0.20000E+26
 898.0      1.08   415.10      0.20000E+26  0.20000E+26    0.455460E-03   453.7   1.0100      0.19702E-04      0.016  0.20000E+26
 899.0      1.08   415.25      0.20000E+26  0.20000E+26    0.455518E-03   454.1   1.0105      0.19727E-04      0.004  0.20000E+26
 900.0      1.08   415.42      0.20000E+26  0.20000E+26    0.455537E-03   454.5   1.0110      0.19751E-04      0.000  0.20000E+26
 
